#  Table wf2f702wsys.tab  Mon 12:21:53 02-Jun-97
#
#      WAVELENGTH      THROUGHPUT
#       angstroms                
#
            1850.     4.233167E-8
         1851.651     9.584529E-8
         1853.301     1.498140E-7
         1854.956     2.043965E-7
         1856.611     2.594185E-7
         1858.267     3.149588E-7
         1859.925     3.710530E-7
         1861.584     3.380939E-7
         1863.246     3.005416E-7
         1864.909     2.626176E-7
         1866.572     2.243482E-7
         1868.237     1.857039E-7
         1869.904     1.466626E-7
         1871.573     1.806358E-7
         1873.242     2.194060E-7
         1874.913     2.585401E-7
         1876.585     2.980427E-7
          1878.26     3.379449E-7
         1879.937     3.780745E-7
         1881.613     3.657798E-7
         1883.292     3.512961E-7
         1884.973     3.366741E-7
         1886.654     3.219306E-7
         1888.338     3.070469E-7
         1890.023     2.922106E-7
         1891.709     2.902307E-7
         1893.396     2.882265E-7
         1895.086     2.861967E-7
         1896.775     2.841452E-7
         1898.469     2.820651E-7
         1900.163     2.770353E-7
         1901.857     2.444610E-7
         1903.555     2.115639E-7
         1905.254     1.783830E-7
         1906.953     1.449416E-7
         1908.655     1.111954E-7
         1910.357     8.149213E-8
         1912.061     6.783340E-8
         1913.768     5.404998E-8
         1915.476     4.014834E-8
         1917.184     2.613715E-8
         1918.894     1.200715E-8
         1920.606     8.647886E-9
          1922.32     2.524285E-8
         1924.035     4.197678E-8
         1925.752     5.884163E-8
          1927.47     7.585578E-8
         1929.189     9.300150E-8
          1930.91     9.527627E-8
         1932.634     8.412883E-8
         1934.358     7.288524E-8
         1936.084     6.155248E-8
         1937.811     5.012155E-8
          1939.54     3.858644E-8
          1941.27     3.145493E-8
         1943.003     2.589442E-8
         1944.737     2.028617E-8
          1946.47     1.463723E-8
         1948.207     8.933533E-9
         1949.947     3.178449E-9
         1951.685     4.387025E-9
         1953.427     5.828157E-9
         1955.171     7.281212E-9
         1956.913     8.744466E-9
          1958.66     1.022155E-8
         1960.408     1.124900E-8
         1962.157     1.076140E-8
         1963.908     1.026910E-8
         1965.658     9.773014E-9
         1967.413     9.271916E-9
         1969.169     8.766353E-9
         1970.925     1.352400E-8
         1972.684     2.308270E-8
         1974.444     3.271488E-8
         1976.205     4.242671E-8
         1977.969     5.222996E-8
         1979.734     6.210178E-8
           1981.5     6.512580E-8
         1983.268     6.693874E-8
         1985.037     6.876395E-8
         1986.809     7.060352E-8
         1988.581     7.245528E-8
         1990.355     7.148710E-8
         1992.131     5.914731E-8
         1993.908     4.670398E-8
         1995.688     3.414126E-8
         1997.467     2.149774E-8
          1999.25     8.734196E-9
         2001.034     3.344211E-9
         2002.818     3.358844E-9
         2004.606     3.373541E-9
         2006.396     3.388267E-9
         2008.184     3.403011E-9
         2009.976     3.417811E-9
         2011.769     3.816824E-9
         2013.565     4.224948E-9
         2015.362     4.636890E-9
         2017.158     5.052129E-9
         2018.958     5.471698E-9
          2020.76     6.292212E-9
         2022.563     7.666242E-9
         2024.368     9.054030E-9
         2026.173     1.045376E-8
         2027.982     1.186739E-8
         2029.791     1.329315E-8
         2031.602     2.430084E-8
         2033.414     3.666126E-8
         2035.228     4.913656E-8
         2037.044     6.173492E-8
         2038.861     7.444164E-8
         2040.681     7.721462E-8
         2042.502     6.310552E-8
         2044.324     4.887158E-8
         2046.147     3.450567E-8
         2047.974     1.999648E-8
           2049.8     5.361844E-9
          2051.63     4.393967E-9
         2053.461     5.117987E-9
         2055.291     5.847624E-9
         2057.125     6.584564E-9
         2058.961     7.328058E-9
         2060.798     7.631635E-9
         2062.637     7.354137E-9
         2064.477     7.074141E-9
         2066.318     6.791486E-9
         2068.164     6.505780E-9
         2070.007     6.217462E-9
         2071.855     5.816105E-9
         2073.704     5.411120E-9
         2075.553     5.002712E-9
         2077.405     4.590646E-9
         2079.259     4.174526E-9
         2081.113     5.960559E-9
         2082.971     9.239342E-9
         2084.829     1.254385E-8
         2086.688     1.587591E-8
          2088.55     1.923829E-8
         2090.414     2.363265E-8
         2092.279     3.158757E-8
         2094.145     3.960600E-8
         2096.014     4.769665E-8
         2097.885     5.585250E-8
         2099.756     6.406945E-8
          2101.63     6.182226E-8
         2103.503     5.797492E-8
         2105.381     5.409121E-8
          2107.26     5.017455E-8
         2109.139     4.622782E-8
         2111.022     4.081965E-8
         2112.906     3.416131E-8
         2114.789     2.745904E-8
         2116.677     2.069526E-8
         2118.564     1.388283E-8
         2120.455     8.480361E-9
         2122.348     7.683137E-9
         2124.241     6.880433E-9
         2126.135     6.071506E-9
         2128.033     5.256012E-9
         2129.932     4.434239E-9
         2131.832     5.336859E-9
         2133.734     6.310090E-9
         2135.637     7.290049E-9
         2137.544     8.278156E-9
          2139.45     9.274090E-9
         2141.359     1.300828E-8
          2143.27     1.788192E-8
         2145.182     2.278878E-8
         2147.096     2.773403E-8
         2149.011     3.271216E-8
         2150.929     3.367118E-8
         2152.848     3.030337E-8
         2154.768     2.691159E-8
         2156.692     2.349139E-8
         2158.615     2.005352E-8
         2160.541     1.687596E-8
         2162.469     1.442069E-8
         2164.397     1.195223E-8
          2166.33     9.462672E-9
         2168.263     6.957903E-9
         2170.196     5.072168E-9
         2172.133     8.797924E-9
          2174.07     1.254350E-8
         2176.011     1.631466E-8
         2177.953     2.010866E-8
         2179.895     2.392271E-8
          2181.84     2.085273E-8
         2183.787     1.736860E-8
         2185.735     1.386648E-8
         2187.686     1.034279E-8
         2189.637     6.801415E-9
          2191.59     6.171617E-9
         2193.546     6.210382E-9
         2195.503     6.249298E-9
         2197.462     6.288352E-9
         2199.423     6.327591E-9
         2201.385     6.168968E-9
         2203.348     5.923951E-9
         2205.315     5.674158E-9
         2207.283     5.419749E-9
         2209.252     5.160860E-9
         2211.222     6.417376E-9
         2213.196     8.632887E-9
          2215.17     1.088041E-8
         2217.147     1.316343E-8
         2219.125     1.548047E-8
         2221.104     1.834651E-8
         2223.086     2.167213E-8
         2225.071     2.504764E-8
         2227.055     2.846489E-8
         2229.042     3.193455E-8
         2231.031     3.101609E-8
         2233.021     2.592910E-8
         2235.015     2.076076E-8
         2237.008     1.552339E-8
         2239.003     1.020973E-8
         2241.002     8.056158E-9
         2242.999     9.116897E-9
         2245.002     1.019353E-8
         2247.005     1.128297E-8
         2249.009     1.238660E-8
         2251.016     1.331507E-8
         2253.024     1.406822E-8
         2255.033     1.483035E-8
         2257.046     1.560206E-8
         2259.061     1.638283E-8
         2261.075     1.888295E-8
         2263.092     2.291825E-8
         2265.112     2.700631E-8
         2267.134     3.114488E-8
         2269.156     3.533115E-8
         2271.181     3.607999E-8
         2273.207     3.432559E-8
         2275.234     3.254755E-8
         2277.266     3.074361E-8
         2279.296     2.891955E-8
          2281.33     2.849017E-8
         2283.366     2.881090E-8
         2285.402     2.913349E-8
         2287.441     2.945873E-8
         2289.483     2.978621E-8
         2291.525     2.697513E-8
          2293.57     2.305609E-8
         2295.615     1.909575E-8
         2297.663     1.508828E-8
         2299.715     1.102996E-8
         2301.765     9.841654E-9
          2303.82     9.110180E-9
         2305.876     8.369562E-9
         2307.932     7.620211E-9
         2309.992     6.861105E-9
         2312.051     7.197091E-9
         2314.116     7.541478E-9
          2316.18     7.889087E-9
         2318.246     8.240254E-9
         2320.315     8.606742E-9
         2322.385     9.040663E-9
         2324.457     9.479343E-9
         2326.531     9.922230E-9
         2328.606     1.036966E-8
         2330.685     1.046657E-8
         2332.764     9.837159E-9
         2334.845     9.200277E-9
         2336.927     8.556039E-9
         2339.012     7.904344E-9
         2341.101     7.717058E-9
         2343.188     7.953989E-9
         2345.279     8.193160E-9
         2347.372     8.434690E-9
         2349.467     8.678425E-9
         2351.562     9.024204E-9
         2353.661     9.407836E-9
         2355.759     9.794561E-9
         2357.862     1.018543E-8
         2359.966     1.057992E-8
         2362.071     1.004152E-8
         2364.179     9.481394E-9
         2366.288     8.915616E-9
         2368.398     8.343774E-9
         2370.512     8.108398E-9
         2372.628     8.948951E-9
         2374.744     9.796907E-9
         2376.863     1.065336E-8
         2378.983     1.151737E-8
         2381.105     1.318611E-8
          2383.23     1.560890E-8
         2385.357     1.805413E-8
         2387.485     2.052075E-8
         2389.615     2.300994E-8
         2391.747     2.866667E-8
         2393.881     3.506774E-8
         2396.017     4.153089E-8
         2398.154     4.804819E-8
         2400.293     5.375331E-8
         2402.435     5.399366E-8
          2404.58     5.423464E-8
         2406.724     5.447603E-8
         2408.872     5.471815E-8
         2411.022     5.167206E-8
         2413.171     4.496059E-8
         2415.326     3.817681E-8
         2417.479     3.134589E-8
         2419.637     2.444519E-8
         2421.796     2.104902E-8
         2423.957     1.834852E-8
          2426.12     1.562305E-8
         2428.284     1.287589E-8
         2430.451     1.151696E-8
         2432.619     1.554958E-8
         2434.789     1.961482E-8
         2436.962     2.371601E-8
         2439.136     2.785008E-8
         2441.312     2.737499E-8
          2443.49     2.382833E-8
          2445.67     2.025035E-8
         2447.853     1.664250E-8
         2450.036     1.309546E-8
         2452.222     1.470633E-8
         2454.409     1.632967E-8
           2456.6     1.796664E-8
         2458.792     1.961599E-8
         2460.985     1.999058E-8
          2463.18     1.878330E-8
         2465.379     1.756539E-8
         2467.579     1.633775E-8
         2469.778     1.510173E-8
         2471.983     1.574337E-8
          2474.19     1.660223E-8
         2476.396     1.746582E-8
         2478.606     1.833673E-8
         2480.817     1.817230E-8
         2483.029     1.622167E-8
         2485.247     1.425330E-8
         2487.462     1.227344E-8
         2489.682     1.027593E-8
         2491.904     1.004793E-8
         2494.125     1.011713E-8
         2496.353     1.018679E-8
         2498.579     1.025668E-8
         2500.808     1.030384E-8
          2503.04     1.031045E-8
         2505.272     1.031690E-8
         2507.509     1.032321E-8
         2509.745     1.032936E-8
         2511.985     1.291514E-8
         2514.225     1.585106E-8
         2516.468     1.880888E-8
         2518.714     2.178999E-8
         2520.962     2.243710E-8
          2523.21     1.992692E-8
         2525.462     1.739606E-8
         2527.715     1.484776E-8
         2529.971     1.227863E-8
         2532.229     1.344312E-8
         2534.486     1.466410E-8
         2536.748     1.589534E-8
          2539.01     1.710711E-8
         2541.277     1.702666E-8
         2543.545     1.594016E-8
         2545.813     1.484996E-8
         2548.084     1.375549E-8
         2550.358     1.279165E-8
         2552.635     1.255032E-8
         2554.911     1.230810E-8
         2557.191     1.206465E-8
         2559.471     1.182043E-8
         2561.755     1.698861E-8
         2564.042     2.381232E-8
         2566.329     3.065752E-8
         2568.619     3.753140E-8
         2570.908     4.157476E-8
         2573.205     4.129328E-8
           2575.5     4.101063E-8
         2577.797     4.072636E-8
         2580.097     4.016557E-8
         2582.399     3.337612E-8
         2584.704     2.655561E-8
          2587.01     1.970995E-8
         2589.318     1.284143E-8
         2591.629     1.331101E-8
          2593.94     1.687359E-8
         2596.254     2.044899E-8
         2598.573     2.404244E-8
         2600.889     2.853389E-8
          2603.21     3.448426E-8
         2605.532     4.045299E-8
         2607.856     4.644435E-8
         2610.185     5.161469E-8
         2612.512     4.692215E-8
         2614.843     4.220556E-8
         2617.177     3.746991E-8
          2619.51     3.272127E-8
         2621.849     3.726912E-8
         2624.188     4.430303E-8
         2626.528     5.136330E-8
         2628.873     5.845498E-8
         2631.217     5.640841E-8
         2633.566     4.584146E-8
         2635.916     3.523308E-8
         2638.267     2.458902E-8
          2640.62     1.732593E-8
         2642.977     1.962056E-8
         2645.334     2.192256E-8
         2647.695     2.423452E-8
         2650.057     2.645295E-8
         2652.422     2.458479E-8
         2654.788     2.271022E-8
         2657.157     2.082677E-8
         2659.526     1.893797E-8
         2661.899     2.021602E-8
         2664.275     2.229373E-8
         2666.652     2.437803E-8
         2669.031     2.647124E-8
         2671.412     2.678297E-8
         2673.796     2.586571E-8
         2676.181     2.494517E-8
          2678.57     2.402013E-8
          2680.96     2.621301E-8
          2683.35     3.306760E-8
         2685.746     3.996042E-8
          2688.14     4.686676E-8
          2690.54     5.006386E-8
         2692.941     4.033963E-8
         2695.343     3.058222E-8
         2697.748     2.078195E-8
         2700.153     1.197304E-8
         2702.563     1.814477E-8
         2704.975     2.435871E-8
         2707.387     3.061175E-8
         2709.804     3.691223E-8
         2712.222     3.790105E-8
         2714.642     3.842157E-8
         2717.063     3.894496E-8
         2719.486     3.947131E-8
         2721.915     3.489269E-8
         2724.343     2.891301E-8
         2726.772     2.289129E-8
         2729.205     1.682745E-8
          2731.64     1.440387E-8
         2734.078     1.375764E-8
         2736.517     1.310709E-8
         2738.958     1.245190E-8
         2741.402     1.440698E-8
         2743.849     1.832668E-8
         2746.296     2.227026E-8
         2748.747     2.624289E-8
         2751.198     2.943992E-8
         2753.653     3.181527E-8
         2756.111     3.419575E-8
         2758.569     3.657997E-8
         2761.031     3.533750E-8
         2763.495     2.904159E-8
         2765.958     2.273964E-8
         2768.427     1.641661E-8
         2770.898     1.240330E-8
         2773.369     1.245847E-8
         2775.844     1.251379E-8
          2778.32     1.256919E-8
         2780.799     1.299058E-8
          2783.28     1.418417E-8
         2785.764     1.538037E-8
         2788.249     1.657824E-8
         2790.736     1.736252E-8
         2793.227     1.715680E-8
          2795.72     1.695066E-8
         2798.213     1.674420E-8
         2800.709     1.767220E-8
         2803.209     2.146735E-8
         2805.709     2.526787E-8
         2808.213     2.907865E-8
         2810.718     3.292005E-8
         2813.226     3.683553E-8
         2815.736     4.075639E-8
         2818.247     4.468489E-8
         2820.764     4.621046E-8
         2823.278     4.219571E-8
         2825.798     3.816817E-8
          2828.32     3.413292E-8
         2830.843     3.145296E-8
         2833.369     3.148394E-8
         2835.898     3.151496E-8
         2838.426     3.154599E-8
         2840.959     3.228824E-8
         2843.495     3.420029E-8
         2846.031     3.611472E-8
         2848.571     3.803409E-8
         2851.112     3.619149E-8
         2853.655     2.949914E-8
         2856.202     2.279086E-8
         2858.751     1.607051E-8
         2861.301     1.422845E-8
         2863.853     1.708313E-8
         2866.407     1.994312E-8
         2868.965     2.281004E-8
         2871.526     2.640395E-8
         2874.087     3.049144E-8
         2876.652     3.458905E-8
         2879.218     3.869092E-8
         2881.788     3.615281E-8
         2884.358     3.070030E-8
         2886.931     2.523802E-8
         2889.507     1.976334E-8
         2892.084     2.138778E-8
         2894.666     2.469918E-8
         2897.248     2.801446E-8
         2899.832     3.133490E-8
         2902.421     3.271621E-8
          2905.01     3.395792E-8
         2907.601     3.519716E-8
         2910.198     3.596047E-8
          2912.79     3.097573E-8
         2915.392     2.598808E-8
         2917.992     2.101634E-8
         2920.594     1.715426E-8
         2923.203     1.701244E-8
         2925.807     1.687113E-8
          2928.42     1.672967E-8
         2931.033     2.196779E-8
         2933.646     3.540211E-8
         2936.266     4.883257E-8
         2938.885     6.221765E-8
         2941.506     6.628473E-8
         2944.131     6.346627E-8
         2946.757     6.065513E-8
         2949.387     5.784793E-8
         2952.018     4.996967E-8
         2954.653     4.056275E-8
          2957.29     3.117607E-8
         2959.926     2.182101E-8
         2962.567     1.914915E-8
          2965.21     1.667722E-8
         2967.856     1.420953E-8
         2970.505     1.241461E-8
         2973.155     1.345420E-8
         2975.808     1.449199E-8
         2978.461     1.552598E-8
         2981.121     1.649221E-8
          2983.78     1.736275E-8
         2986.441     1.823114E-8
         2989.104     1.909725E-8
         2991.772     1.862049E-8
         2994.442     1.746778E-8
         2997.113     1.631835E-8
         2999.788     1.517084E-8
         3002.464     1.429732E-8
         3005.142     1.344906E-8
         3007.826     1.260171E-8
         3010.507     1.224208E-8
         3013.194     1.396034E-8
         3015.883     1.567418E-8
         3018.573     1.738248E-8
         3021.267     1.920013E-8
          3023.96     2.113742E-8
          3026.66     2.307305E-8
          3029.36     2.500119E-8
         3032.062     2.576454E-8
          3034.77     2.616669E-8
         3037.475     2.656684E-8
         3040.186     2.665182E-8
         3042.897     2.247671E-8
         3045.612     1.831230E-8
         3048.332     1.415381E-8
         3051.051     1.160215E-8
         3053.772     1.158094E-8
         3056.497     1.155967E-8
         3059.222     1.153838E-8
         3061.954     1.621467E-8
         3064.685     2.273842E-8
         3067.418     2.924412E-8
         3070.156     3.562244E-8
         3072.896     4.012900E-8
         3075.637     4.461985E-8
          3078.38     4.909698E-8
         3081.126     4.715155E-8
         3083.877     3.598705E-8
         3086.628     2.486795E-8
         3089.381     1.378252E-8
         3092.137     1.652166E-8
         3094.895     2.324326E-8
         3097.659     2.995272E-8
         3100.422     3.470760E-8
         3103.187     2.874251E-8
         3105.955     2.275507E-8
         3108.729     1.673780E-8
         3111.501     1.357892E-8
         3114.277     1.284747E-8
         3117.056     1.211280E-8
         3119.836     1.137586E-8
         3122.621     1.231719E-8
         3125.406     1.336679E-8
         3128.195     1.442082E-8
         3130.985     1.474577E-8
         3133.778     1.372746E-8
         3136.575     1.270472E-8
         3139.373     1.167876E-8
         3142.175     1.146094E-8
         3144.979     1.147730E-8
         3147.784     1.149369E-8
         3150.592     1.151008E-8
         3153.405     1.152644E-8
         3156.218     1.154280E-8
         3159.035     1.155920E-8
         3161.851     1.852512E-8
         3164.674     2.917056E-8
         3167.497     3.984251E-8
         3170.322     4.812317E-8
         3173.152     3.750571E-8
         3175.982     2.685439E-8
         3178.816     1.615718E-8
         3181.652     1.586615E-8
          3184.49     2.307117E-8
         3187.333     3.031284E-8
         3190.175     3.684760E-8
         3193.022     3.237708E-8
          3195.87     2.789223E-8
         3198.722     2.338800E-8
         3201.577     2.082914E-8
         3204.433     1.985486E-8
         3207.291     1.887691E-8
         3210.151     1.792730E-8
         3213.018     1.754815E-8
         3215.884     1.716800E-8
         3218.752     1.678636E-8
         3221.623     2.085800E-8
         3224.499     2.838120E-8
         3227.376     3.593280E-8
         3230.255     4.209421E-8
         3233.136     3.370950E-8
          3236.02     2.529293E-8
         3238.908     1.683940E-8
         3241.799     1.737551E-8
          3244.69     2.339785E-8
         3247.584     2.944356E-8
         3250.485     3.354282E-8
         3253.384     2.779234E-8
         3256.286     2.201996E-8
         3259.192     1.622222E-8
         3262.097     1.470535E-8
          3265.01     1.484208E-8
         3267.922     1.497909E-8
         3270.837     1.490796E-8
         3273.758     1.431678E-8
         3276.675     1.372483E-8
         3279.601     1.312910E-8
         3282.526     1.482816E-8
         3285.454     1.689755E-8
         3288.388     1.897718E-8
         3291.319     1.910759E-8
         3294.257     1.684313E-8
         3297.195     1.457148E-8
         3300.137     1.281113E-8
         3303.083     2.170900E-8
         3306.029     3.063564E-8
         3308.979     3.960073E-8
         3311.931     3.690175E-8
         3314.885     2.799780E-8
         3317.844     1.905452E-8
         3320.803     1.261476E-8
         3323.767     1.296819E-8
         3326.731     1.332273E-8
           3329.7     1.367882E-8
          3332.67     1.576692E-8
         3335.643     1.805785E-8
         3338.622     2.036018E-8
         3341.599     2.079392E-8
          3344.58     1.960973E-8
         3347.563     1.842101E-8
         3350.551     1.857451E-8
         3353.541     2.470453E-8
         3356.532     3.085461E-8
         3359.528     3.703184E-8
         3362.524     3.880779E-8
         3365.525     3.976206E-8
         3368.527     4.071935E-8
         3371.532     3.785651E-8
         3374.541     3.129323E-8
         3377.551     2.470808E-8
         3380.565     2.006854E-8
         3383.582     2.399008E-8
         3386.598     2.792203E-8
         3389.623     3.187653E-8
         3392.646     3.115258E-8
         3395.672     2.975560E-8
         3398.705     2.835134E-8
         3401.732     2.834766E-8
          3404.77     2.939784E-8
         3407.807     3.045076E-8
         3410.847     3.245693E-8
         3413.893     3.694063E-8
         3416.938     4.143640E-8
         3419.985     4.595002E-8
         3423.038     3.605829E-8
         3426.089     2.606961E-8
         3429.148     1.602291E-8
         3432.207     3.812248E-8
         3435.268     7.275393E-8
         3438.334     1.075450E-7
         3441.401     1.107096E-7
         3444.473     7.603168E-8
         3447.545     4.124021E-8
         3450.622     1.335950E-8
         3453.701     1.338043E-8
         3456.782     1.340138E-8
         3459.865     1.342236E-8
         3462.951     1.363791E-8
         3466.042     1.386332E-8
         3469.135     1.408959E-8
         3472.229     1.746015E-8
         3475.326     2.206740E-8
         3478.426     2.669320E-8
         3481.532     2.669502E-8
         3484.638     2.191699E-8
         3487.746     1.711979E-8
         3490.859     1.480438E-8
         3493.972     1.906906E-8
         3497.091     2.335340E-8
          3500.21     2.707939E-8
         3503.334     2.284817E-8
          3506.46     1.859915E-8
         3509.586     1.433759E-8
          3512.72     1.428671E-8
         3515.852     1.488056E-8
         3518.989     1.547751E-8
          3522.13     1.990649E-8
         3525.271     2.617224E-8
         3528.418     3.246777E-8
         3531.563     3.227273E-8
         3534.717     2.545790E-8
          3537.87     1.862234E-8
         3541.025     1.967013E-8
         3544.188     3.722879E-8
         3547.349     5.483895E-8
         3550.513     7.188119E-8
         3553.679     8.566290E-8
         3556.849     9.950330E-8
         3560.026     1.137369E-7
         3563.201     1.670500E-7
         3566.379     2.205882E-7
         3569.562     2.743934E-7
         3572.746     2.185859E-7
         3575.935     1.449306E-7
         3579.124     7.100759E-8
         3582.316     4.339510E-8
         3585.513     3.333735E-8
         3588.714     2.323500E-8
         3591.915     2.587323E-8
         3595.118     3.712978E-8
         3598.325     4.843596E-8
         3601.538     5.126897E-8
         3604.751     4.480368E-8
         3607.966     3.831044E-8
         3611.184     3.353701E-8
         3614.409     3.175244E-8
         3617.633     2.996224E-8
         3620.859     2.886427E-8
         3624.089     2.969475E-8
         3627.322     3.052869E-8
         3630.561     3.044925E-8
         3633.799     2.597887E-8
          3637.04     2.148877E-8
         3640.286     1.777542E-8
         3643.533     2.232924E-8
         3646.785     2.690536E-8
         3650.038     3.138370E-8
         3653.295     2.601852E-8
         3656.556     2.062913E-8
         3659.815     1.522313E-8
         3663.082     1.494076E-8
         3666.353     1.496705E-8
         3669.621     1.499334E-8
         3672.896     1.501975E-8
         3676.172     1.504620E-8
         3679.451     1.507269E-8
         3682.737     2.813947E-8
         3686.022     4.386837E-8
         3689.309     5.966548E-8
           3692.6     5.972149E-8
         3695.896     5.556397E-8
         3699.194     5.138746E-8
         3702.494     6.279141E-8
         3705.798     7.930938E-8
         3709.101     9.587931E-8
         3712.412     9.220791E-8
         3715.725     8.092098E-8
         3719.039     6.959120E-8
         3722.358     6.084305E-8
         3725.678     5.313815E-8
         3729.004     4.539375E-8
          3732.33     3.668785E-8
         3735.659     2.754280E-8
         3738.995     1.834561E-8
          3742.33     2.721984E-8
         3745.668     4.396301E-8
         3749.009     6.078020E-8
         3752.354     5.721818E-8
         3755.703     4.499973E-8
         3759.053     3.273402E-8
         3762.408     3.268976E-8
         3765.764     3.748454E-8
         3769.125     4.230312E-8
         3772.487     5.171677E-8
         3775.852     6.278657E-8
         3779.222     7.391326E-8
         3782.594     7.400579E-8
         3785.968     7.076692E-8
         3789.345     6.751318E-8
         3792.725     5.535853E-8
         3796.112     4.099179E-8
         3799.498     2.657839E-8
         3802.887     3.395235E-8
         3806.279     4.516789E-8
         3809.676     5.644083E-8
         3813.076     6.388883E-8
         3816.477     7.095665E-8
         3819.881     7.805517E-8
          3823.29     5.872900E-8
           3826.7     3.837120E-8
         3830.116     1.858025E-8
         3833.532     1.783029E-8
         3836.951     1.707698E-8
         3840.378     1.674888E-8
         3843.803     1.989222E-8
         3847.232     2.304918E-8
         3850.663     2.707470E-8
         3854.102     3.470570E-8
          3857.54     4.236095E-8
          3860.98     4.670179E-8
         3864.426     4.263452E-8
         3867.875     3.854924E-8
         3871.325     4.020377E-8
         3874.778     5.112037E-8
         3878.234     6.208378E-8
         3881.695     7.042436E-8
         3885.157     7.600199E-8
         3888.625     8.160712E-8
         3892.094     7.572577E-8
         3895.565     6.224188E-8
         3899.044     4.868192E-8
         3902.521     5.241481E-8
         3906.002     6.275386E-8
         3909.489     7.314321E-8
         3912.975     9.310561E-8
         3916.468     1.148121E-7
         3919.961     1.365962E-7
         3923.457     1.037106E-7
         3926.961     7.002154E-8
         3930.462     3.984260E-8
         3933.969     3.322232E-8
         3937.478     2.657786E-8
         3940.992     2.451855E-8
          3944.51     3.421393E-8
         3948.028     4.394393E-8
          3951.55     5.745065E-8
         3955.074     7.577898E-8
         3958.606     9.420706E-8
         3962.137     9.084733E-8
         3965.671     7.318936E-8
          3969.21     5.544674E-8
          3972.75     5.111370E-8
         3976.296     5.064052E-8
         3979.843     5.016548E-8
         3983.395     6.018434E-8
          3986.95     7.073157E-8
         3990.504     7.722878E-8
         3994.065     5.897400E-8
          3997.63     4.064357E-8
         4001.196     3.902744E-8
         4004.767     7.069315E-8
         4008.339     1.023572E-7
         4011.914     1.062367E-7
         4015.494     8.595408E-8
         4019.078     6.566071E-8
         4022.663     6.362144E-8
         4026.251     6.790464E-8
         4029.844     7.219219E-8
         4033.441     7.673115E-8
         4037.039     8.128060E-8
         4040.639     8.648890E-8
         4044.243     9.474670E-8
         4047.855     1.030185E-7
         4051.465     1.005189E-7
         4055.079     8.225029E-8
         4058.698     6.396360E-8
         4062.316     6.816040E-8
         4065.944     8.502467E-8
          4069.57     1.018742E-7
           4073.2     9.759733E-8
         4076.838     9.047135E-8
         4080.472     8.485478E-8
         4084.114     8.929334E-8
         4087.756     9.373066E-8
         4091.405     9.229766E-8
         4095.056     8.147475E-8
         4098.708     7.065631E-8
         4102.367     6.717339E-8
         4106.026     6.770033E-8
         4109.688     6.822725E-8
         4113.356     6.938862E-8
         4117.025     7.060839E-8
         4120.699     7.140152E-8
         4124.375     7.037534E-8
         4128.056     6.934824E-8
         4131.738     7.196577E-8
         4135.423     7.866244E-8
         4139.116     8.536908E-8
         4142.808     7.801267E-8
         4146.503     6.622691E-8
         4150.201     5.565446E-8
         4153.903     6.619118E-8
         4157.613     7.674006E-8
         4161.321     8.642021E-8
         4165.033     9.455061E-8
         4168.748     1.026817E-7
         4172.466     1.051462E-7
         4176.192     1.047305E-7
         4179.917     1.043152E-7
         4183.645     8.942204E-8
         4187.379     7.418836E-8
         4191.116     6.114517E-8
         4194.854     5.325445E-8
         4198.596     4.536362E-8
         4202.343     4.742232E-8
         4206.094     5.546466E-8
         4209.845     6.352377E-8
         4213.603     6.558417E-8
         4217.358     6.738840E-8
         4221.123     6.727374E-8
          4224.89     6.261857E-8
         4228.658     5.795314E-8
         4232.432     6.922470E-8
         4236.208     8.933291E-8
         4239.988     1.095058E-7
          4243.77     9.366041E-8
         4247.555     7.766014E-8
         4251.348     6.063040E-8
          4255.14     4.181844E-8
         4258.936     2.295611E-8
         4262.734     1.767109E-8
         4266.537     1.768650E-8
         4270.347     1.770195E-8
         4274.155     1.771738E-8
         4277.968     1.773284E-8
         4281.786     1.774820E-8
         4285.605     1.776344E-8
          4289.43     1.777871E-8
         4293.256     1.779396E-8
         4297.085     1.780921E-8
         4300.922     1.782445E-8
         4304.759     1.783952E-8
         4308.598     1.785460E-8
         4312.441     1.786969E-8
          4316.29     1.788479E-8
         4320.142     1.789990E-8
         4323.996     1.791500E-8
         4327.854     1.793012E-8
         4331.715     1.794525E-8
         4335.581     1.796038E-8
         4339.448     1.797551E-8
         4343.318     1.799046E-8
         4347.195     1.800541E-8
         4351.072     1.802029E-8
         4354.956     1.803504E-8
          4358.84     1.804979E-8
         4362.728     1.806469E-8
         4366.624     1.807967E-8
         4370.519     1.809463E-8
         4374.417     1.810939E-8
         4378.318     1.812418E-8
         4382.229     3.274856E-8
         4386.137     5.842055E-8
         4390.049     9.026292E-8
         4393.967     6.015734E-7
         4397.889     1.114216E-6
         4401.812     1.792079E-6
         4405.738     2.663551E-6
         4409.667     3.537201E-6
         4413.603     4.017636E-6
         4417.542     4.462654E-6
         4421.482     4.813988E-6
         4425.426     5.009132E-6
         4429.373     5.204728E-6
         4433.329     5.052136E-6
         4437.283     4.833580E-6
         4441.241     4.487810E-6
         4445.205     3.862828E-6
         4449.169     3.236686E-6
          4453.14     2.714946E-6
         4457.112     2.220347E-6
         4461.088     1.725870E-6
         4465.069     1.233423E-6
         4469.052     7.400771E-7
         4473.041     5.083836E-7
          4477.03     3.584419E-7
         4481.028     2.367950E-7
         4485.022     1.983593E-7
         4489.025     1.597782E-7
         4493.032     1.489712E-7
         4497.039     1.471123E-7
         4501.053     1.450188E-7
         4505.067     1.422639E-7
         4509.086     1.394794E-7
         4513.107     1.431009E-7
         4517.136     1.486569E-7
         4521.167     1.491603E-7
           4525.2     1.370999E-7
         4529.238     1.249213E-7
         4533.281     1.269505E-7
         4537.324     1.323312E-7
         4541.371     1.356406E-7
         4545.422     1.348287E-7
         4549.479     1.340052E-7
         4553.539     1.227213E-7
           4557.6     1.097949E-7
         4561.668     9.521776E-8
         4565.734     7.832823E-8
         4569.809     6.126692E-8
         4573.887     5.532219E-8
         4577.967     4.988280E-8
         4582.053     5.117996E-8
         4586.142     5.923967E-8
         4590.233     6.632484E-8
         4594.327     5.620609E-8
         4598.425     4.600049E-8
         4602.529     3.853467E-8
         4606.637     3.277801E-8
         4610.746     2.860705E-8
          4614.86     3.179460E-8
         4618.979     3.500861E-8
         4623.097     3.737048E-8
         4627.223     3.946437E-8
          4631.35     3.920282E-8
         4635.483     3.403369E-8
         4639.621     2.882113E-8
         4643.759     3.469396E-8
           4647.9     4.174198E-8
         4652.046     4.540760E-8
         4656.198     4.555624E-8
         4660.354     4.529174E-8
         4664.511     4.056265E-8
         4668.673     3.579218E-8
          4672.84     3.423294E-8
         4677.005     3.418588E-8
          4681.18     3.568950E-8
         4685.355     4.115810E-8
         4689.537     4.667326E-8
         4693.722     4.777336E-8
         4697.909     4.832322E-8
         4702.102     4.408829E-8
         4706.293     3.504354E-8
         4710.493     2.680899E-8
         4714.697     2.525897E-8
         4718.902     2.369709E-8
         4723.114     3.085879E-8
          4727.33     4.116877E-8
         4731.543     4.816672E-8
         4735.766     4.934738E-8
          4739.99     5.053552E-8
         4744.221     4.327709E-8
         4748.455     3.594183E-8
          4752.69     3.549447E-8
         4756.932     3.905043E-8
         4761.172     4.038953E-8
         4765.421     3.584425E-8
         4769.674     3.126337E-8
         4773.929     3.190444E-8
         4778.189     3.298793E-8
         4782.454     3.115222E-8
         4786.719     2.713512E-8
         4790.989     2.404540E-8
         4795.262     2.412629E-8
         4799.542     2.420732E-8
         4803.826     2.428842E-8
          4808.11     2.436956E-8
         4812.401     2.445066E-8
         4816.696     2.453172E-8
         4820.993     2.477438E-8
         4825.292     2.555823E-8
         4829.597     2.634755E-8
         4833.907     3.053323E-8
         4838.221     3.510174E-8
         4842.537     3.625015E-8
         4846.855     3.497677E-8
         4851.179     3.431253E-8
         4855.508     3.530274E-8
         4859.842     3.629957E-8
         4864.177     3.184752E-8
         4868.518     2.715176E-8
         4872.863     2.614067E-8
         4877.209     2.705439E-8
          4881.56     2.825013E-8
         4885.914     2.994935E-8
         4890.277     3.140829E-8
         4894.639     2.911197E-8
         4899.004     2.679832E-8
         4903.376     3.149883E-8
         4907.748     3.830762E-8
          4912.13     3.996097E-8
         4916.512     3.609246E-8
         4920.897     3.356696E-8
         4925.289     3.638007E-8
         4929.685     3.921306E-8
         4934.082     3.431920E-8
         4938.482     2.878866E-8
         4942.887     2.692860E-8
         4947.301     2.701302E-8
         4951.714     2.709742E-8
         4956.131     2.718192E-8
         4960.554     2.726651E-8
         4964.976     2.735077E-8
          4969.41     2.743527E-8
         4973.842     2.752010E-8
         4978.278     2.760505E-8
         4982.724     2.837962E-8
         4987.168     2.959512E-8
         4991.617     3.081436E-8
         4996.069     3.203407E-8
         5000.528     3.286232E-8
         5004.991     3.070126E-8
         5009.455     2.852255E-8
         5013.923     2.834738E-8
         5018.398     2.845226E-8
         5022.874     2.855743E-8
         5027.357     2.866292E-8
         5031.841     2.876832E-8
         5036.329     2.887360E-8
         5040.827     2.897920E-8
         5045.323     2.908510E-8
         5049.823     2.919113E-8
         5054.327     3.523855E-8
         5058.838     4.158211E-8
         5063.353     3.978814E-8
         5067.869     3.513086E-8
          5072.39     3.244263E-8
         5076.919     3.152942E-8
         5081.448     3.115865E-8
          5085.98     3.195852E-8
         5090.516     3.267104E-8
          5095.06     3.266121E-8
         5099.607     3.265050E-8
         5104.155     3.180602E-8
         5108.708     3.087483E-8
         5113.265     3.149746E-8
         5117.828     3.274593E-8
         5122.396     3.280471E-8
         5126.965     3.177232E-8
         5131.538     3.691085E-8
          5136.12     5.436241E-8
         5140.701     6.660869E-8
         5145.287     4.938462E-8
         5149.876     3.202526E-8
         5154.472     3.166036E-8
         5159.072     3.176932E-8
         5163.674     3.585256E-8
         5168.283     4.097820E-8
         5172.895     3.983547E-8
         5177.506     3.493148E-8
         5182.127     3.289376E-8
         5186.749     3.426563E-8
         5191.378     3.681703E-8
         5196.012     4.215527E-8
         5200.646     4.657283E-8
         5205.285     4.508958E-8
         5209.928     4.359400E-8
         5214.577     3.884856E-8
         5219.231     3.401414E-8
         5223.887     3.330462E-8
         5228.549     3.341496E-8
         5233.215     3.685609E-8
          5237.88     4.182529E-8
         5242.555     4.451711E-8
         5247.231     4.529408E-8
         5251.914     4.485317E-8
         5256.601     4.263121E-8
          5261.29     4.057387E-8
         5265.985     3.897861E-8
          5270.68     3.743772E-8
         5275.383     3.627000E-8
         5280.092     3.511355E-8
         5284.801     3.499909E-8
         5289.518     3.488300E-8
         5294.239     4.027800E-8
         5298.958     4.633362E-8
         5303.687     5.034255E-8
         5308.418     5.378290E-8
         5313.155     5.680396E-8
         5317.897     5.962234E-8
         5322.641     5.487858E-8
         5327.391     4.403333E-8
          5332.14     3.762363E-8
         5336.899     3.667488E-8
         5341.662     3.702937E-8
         5346.426     3.984010E-8
         5351.198     4.218455E-8
         5355.974     4.308560E-8
         5360.751     4.533000E-8
         5365.532     5.479261E-8
         5370.318     6.284221E-8
         5375.111     5.008699E-8
         5379.908     3.724232E-8
         5384.707     4.509967E-8
         5389.513     5.342277E-8
         5394.323     5.815849E-8
         5399.131     6.250842E-8
          5403.95     6.082161E-8
          5408.77     5.778310E-8
         5413.597     5.132073E-8
         5418.429     4.364545E-8
         5423.262     5.130303E-8
         5428.099     6.645126E-8
          5432.94     6.343063E-8
         5437.792     4.851189E-8
         5442.643     4.089069E-8
         5447.497     3.940625E-8
         5452.359     4.299579E-8
         5457.225     5.202581E-8
         5462.092     5.343034E-8
         5466.964     4.461896E-8
          5471.84     4.170591E-8
         5476.724     4.864172E-8
         5481.612     5.111080E-8
         5486.501     4.439482E-8
         5491.398     4.430004E-8
         5496.293     6.093921E-8
         5501.198     7.093723E-8
         5506.108     5.997830E-8
         5511.019     5.227805E-8
         5515.938     5.726117E-8
          5520.86     6.007429E-8
         5525.785     5.248393E-8
         5530.713     4.562729E-8
         5535.646     4.336023E-8
         5540.587     4.244735E-8
         5545.532     5.172645E-8
         5550.478     5.924295E-8
         5555.432     4.981571E-8
         5560.387     4.213797E-8
         5565.347     5.572945E-8
         5570.313     6.793624E-8
         5575.282     5.827186E-8
         5580.258     4.886122E-8
         5585.238     4.521545E-8
          5590.22     4.185088E-8
         5595.206     4.500919E-8
         5600.197     4.850503E-8
         5605.198     5.983258E-8
         5610.197     7.055785E-8
         5615.201     6.589735E-8
         5620.213     6.108932E-8
         5625.226     5.341856E-8
         5630.246     4.600118E-8
         5635.268     4.415755E-8
         5640.294     4.241889E-8
         5645.328     4.248050E-8
         5650.367     4.341785E-8
         5655.406     5.553317E-8
         5660.451     6.553626E-8
         5665.502     5.351433E-8
         5670.559     4.278855E-8
         5675.617     4.284950E-8
         5680.679     4.565166E-8
         5685.752     6.621898E-8
         5690.823     8.949378E-8
         5695.899     1.265908E-7
         5700.979     1.463732E-7
         5706.064     9.301191E-8
          5711.16     6.448361E-8
         5716.254     1.211150E-7
         5721.353     1.794066E-7
         5726.456     2.419408E-7
         5731.567     3.235083E-7
         5736.682     4.479060E-7
         5741.799     6.702558E-7
          5746.92     1.073816E-6
         5752.053     1.629097E-6
         5757.183     2.410610E-6
         5762.318     3.778872E-6
         5767.458     5.863516E-6
         5772.602     8.926378E-6
         5777.757     1.295557E-5
         5782.911     1.971550E-5
         5788.068     2.860125E-5
         5793.237     4.064278E-5
         5798.401     5.456326E-5
         5803.577     7.741086E-5
         5808.753     1.042911E-4
         5813.937     1.395268E-4
         5819.126     1.775073E-4
         5824.316     2.396651E-4
         5829.511     3.069280E-4
         5834.711     3.889602E-4
         5839.918     4.728465E-4
          5845.13     6.063067E-4
         5850.344     7.438685E-4
         5855.562     9.435289E-4
         5860.792     0.001187862
         5866.016     0.001482854
         5871.251     0.001841497
         5876.488     0.002281247
         5881.732     0.002824659
         5886.982     0.003501232
         5892.232     0.004335047
         5897.491     0.005376045
         5902.749     0.006700946
         5908.017     0.008364541
          5913.29      0.01044655
         5918.563      0.01296523
         5923.846      0.01598796
         5929.133      0.01953791
         5934.421      0.02368246
         5939.714       0.0285553
         5945.012      0.03421657
         5950.318      0.04060106
         5955.629      0.04786995
         5960.941      0.05582649
         5966.258      0.06429069
         5971.579      0.07301526
         5976.909      0.08144447
         5982.243      0.08912627
         5987.579      0.09569667
         5992.923        0.100857
         5998.271       0.1046125
         6003.622       0.1069329
         6008.976       0.1080255
         6014.336       0.1082264
         6019.704       0.1077217
         6025.076       0.1068069
          6030.45       0.1057036
         6035.832       0.1045886
         6041.219       0.1036432
         6046.604       0.1029362
         6052.001       0.1025465
         6057.399       0.1025342
         6062.805       0.1028203
         6068.216       0.1032419
         6073.628       0.1036148
         6079.046       0.1039342
         6084.468       0.1041647
         6089.898       0.1043509
         6095.333       0.1047017
          6100.77       0.1052686
         6106.215       0.1060537
         6111.665       0.1071268
         6117.112       0.1085117
         6122.572       0.1101998
         6128.033       0.1121301
         6133.502       0.1143422
         6138.976       0.1167193
         6144.452        0.119097
         6149.936       0.1212954
         6155.417        0.123306
         6160.911       0.1251626
          6166.41       0.1267994
          6171.91       0.1283402
         6177.418       0.1298452
         6182.932       0.1313302
         6188.443       0.1327961
         6193.966       0.1342509
         6199.491       0.1356324
         6205.024        0.137001
         6210.562       0.1382684
         6216.101       0.1393453
         6221.649       0.1402328
         6227.195       0.1409105
         6232.756       0.1414963
         6238.315       0.1418685
         6243.879         0.14209
         6249.452       0.1422257
         6255.029       0.1422001
         6260.608       0.1421616
         6266.193       0.1420446
         6271.782       0.1418645
         6277.379       0.1415718
         6282.982       0.1413369
         6288.586       0.1410819
         6294.198       0.1408063
         6299.809       0.1405246
         6305.435       0.1402962
         6311.059       0.1400471
         6316.688       0.1397916
         6322.326        0.139508
         6327.968       0.1392342
         6333.612       0.1388931
         6339.262        0.138615
         6344.916       0.1382884
         6350.579       0.1380324
         6356.247       0.1378686
         6361.916       0.1377767
         6367.594       0.1378331
         6373.277       0.1379908
         6378.961       0.1381882
         6384.651       0.1384967
         6390.346       0.1387956
         6396.049       0.1391131
         6401.757       0.1394831
         6407.467       0.1398551
         6413.183       0.1402169
         6418.906       0.1405805
         6424.631       0.1409755
         6430.365       0.1413802
         6436.104       0.1418128
         6441.845       0.1423236
         6447.594       0.1427678
         6453.345       0.1432737
         6459.101       0.1437411
         6464.866       0.1442929
         6470.632       0.1447731
         6476.407       0.1452879
         6482.184       0.1457892
         6487.969       0.1461954
         6493.756       0.1465717
         6499.548       0.1469727
         6505.349       0.1470859
         6511.154       0.1471557
         6516.962         0.14709
         6522.778       0.1466789
         6528.596       0.1463518
         6534.419       0.1467106
         6540.251       0.1467998
         6546.088       0.1464719
         6551.927       0.1461833
         6557.771       0.1458779
         6563.624       0.1455344
         6569.478        0.145177
         6575.341       0.1447828
         6581.206       0.1443274
          6587.08       0.1438645
         6592.955       0.1433865
         6598.839       0.1428576
         6604.729       0.1422853
         6610.616       0.1417331
         6616.516       0.1411917
         6622.421       0.1406003
         6628.328       0.1400491
         6634.244       0.1394849
         6640.165       0.1389344
         6646.087       0.1384563
         6652.015       0.1379481
         6657.948       0.1374801
         6663.891       0.1370569
         6669.838       0.1366076
         6675.787       0.1362783
         6681.745       0.1359251
         6687.701       0.1356011
          6693.67       0.1353015
         6699.644        0.135029
          6705.62       0.1347875
         6711.604       0.1345712
         6717.594       0.1344253
         6723.586       0.1342792
         6729.583        0.134217
         6735.585       0.1341691
         6741.597       0.1341091
         6747.613       0.1340908
         6753.632       0.1340858
          6759.66        0.134103
         6765.692       0.1341358
         6771.723       0.1341778
         6777.767        0.134166
         6783.813       0.1342245
         6789.867        0.134239
         6795.927       0.1342247
         6801.988       0.1342497
         6808.055       0.1342603
         6814.127       0.1341886
         6820.209       0.1341309
         6826.296       0.1340995
         6832.385       0.1340161
         6838.482       0.1338754
         6844.586       0.1337455
         6850.687       0.1335878
         6856.801       0.1333712
         6862.917       0.1330998
         6869.042       0.1327263
         6875.173       0.1323493
         6881.305       0.1319646
         6887.446       0.1315917
         6893.586        0.131215
         6899.738       0.1307731
         6905.896       0.1302885
         6912.056       0.1297356
         6918.225        0.129185
         6924.399       0.1286222
         6930.572       0.1280802
         6936.757       0.1275064
         6942.944       0.1269195
         6949.141       0.1262646
         6955.343       0.1256716
         6961.546       0.1251091
          6967.76       0.1243771
         6973.971       0.1237132
         6980.195       0.1231628
         6986.424       0.1226296
         6992.656       0.1221438
         6998.897       0.1216469
         7005.143        0.121102
         7011.392       0.1205922
         7017.645       0.1201057
         7023.904        0.119635
         7030.173       0.1191785
         7036.448       0.1187423
         7042.724       0.1183556
         7049.009       0.1179807
         7055.292       0.1176996
         7061.589       0.1173799
         7067.892       0.1170876
         7074.196       0.1168757
          7080.51       0.1166417
         7086.829       0.1164787
          7093.15       0.1163205
         7099.477       0.1161575
         7105.809        0.116142
         7112.151       0.1160496
         7118.498       0.1159557
         7124.848       0.1159973
         7131.207       0.1159947
         7137.571       0.1159637
         7143.933       0.1159811
         7150.309       0.1160176
         7156.687       0.1159669
         7163.074       0.1159344
         7169.467       0.1158959
         7175.862       0.1157817
         7182.262       0.1156748
         7188.668       0.1155443
         7195.084       0.1153888
         7201.506       0.1152057
         7207.929        0.114976
         7214.362       0.1146966
         7220.801        0.114436
         7227.237        0.114115
         7233.688       0.1137005
         7240.144       0.1132796
         7246.601       0.1128164
         7253.069       0.1122837
         7259.538       0.1117559
         7266.017       0.1111932
         7272.498       0.1105269
         7278.989       0.1098524
         7285.481       0.1092044
         7291.979       0.1084857
         7298.487       0.1077816
         7305.001       0.1070132
         7311.517       0.1062428
         7318.038       0.1054878
         7324.569       0.1046551
         7331.103       0.1038335
         7337.646       0.1030929
          7344.19       0.1022739
         7350.745       0.1014733
         7357.301       0.1007287
         7363.867       0.1000364
         7370.436      0.09932885
         7377.014      0.09864728
         7383.593      0.09810002
         7390.183      0.09749601
         7396.775       0.0969561
         7403.372      0.09643483
         7409.979      0.09594347
         7416.589      0.09551851
         7423.208      0.09507626
         7429.829      0.09465254
          7436.46      0.09422168
         7443.097      0.09386021
         7449.736      0.09349063
         7456.381      0.09317757
         7463.036      0.09286119
         7469.692       0.0926504
         7476.359      0.09248653
         7483.027      0.09232479
         7489.702       0.0922648
         7496.386      0.09226332
         7503.077      0.09228555
         7509.769      0.09233962
         7516.471      0.09243407
         7523.175      0.09259371
          7529.89      0.09272867
         7536.606      0.09285544
         7543.328      0.09293907
         7550.061      0.09304112
         7556.794      0.09311237
         7563.539      0.09317826
          7570.29      0.09325543
         7577.042       0.0933173
           7583.8      0.09335113
         7590.568       0.0934034
         7597.339      0.09338637
         7604.119      0.09339036
         7610.906      0.09334351
         7617.694      0.09330703
         7624.489      0.09314483
          7631.29      0.09301101
           7638.1      0.09284217
         7644.917      0.09268521
         7651.736      0.09243514
         7658.565      0.09206943
         7665.396      0.09177939
         7672.233      0.09135665
         7679.081      0.09093195
          7685.93      0.09045266
          7692.79      0.08986279
         7699.655      0.08931831
         7706.523      0.08870308
         7713.401      0.08799158
         7720.276      0.08727957
         7727.167      0.08656971
         7734.063      0.08581839
         7740.961      0.08503954
          7747.87      0.08432715
         7754.785      0.08351896
         7761.697      0.08278511
         7768.625      0.08203563
         7775.554       0.0812586
         7782.494      0.08051036
         7789.439      0.07975475
         7796.387      0.07892354
         7803.345      0.07810299
         7810.301      0.07728999
         7817.271      0.07639336
         7824.249      0.07552687
         7831.227      0.07463082
         7838.216      0.07370801
         7845.212      0.07295639
         7852.209        0.072139
         7859.213      0.07137139
         7866.223       0.0706609
         7873.244       0.0700234
         7880.271      0.06940024
         7887.299      0.06884203
         7894.338      0.06830956
         7901.375      0.06781913
         7908.427      0.06729646
         7915.485       0.0668487
         7922.545      0.06638671
         7929.616      0.06599712
         7936.693      0.06565694
         7943.772      0.06535553
         7950.858      0.06514888
          7957.95      0.06496195
         7965.052      0.06488003
         7972.161      0.06486225
         7979.271      0.06483625
         7986.393      0.06482293
         7993.521      0.06482126
         8000.646      0.06430307
         8007.786      0.06390149
         8014.929      0.06348513
         8022.082      0.06284086
         8029.242      0.06236643
         8036.403       0.0618026
         8043.576      0.06119799
         8050.746      0.06074475
         8057.931      0.06035235
         8065.123      0.05984408
         8072.316      0.05934778
         8079.521      0.05881507
         8086.731      0.05791029
          8093.94      0.05668547
         8101.164      0.05518107
         8108.389      0.05319456
         8115.626      0.05087026
         8122.869      0.04851208
         8130.114      0.04585495
          8137.37      0.04304866
         8144.628      0.04032161
         8151.893      0.03777989
         8159.168      0.03529537
         8166.446      0.03313683
         8173.734      0.03125203
         8181.029      0.02950637
         8188.326      0.02772999
          8195.63      0.02583544
         8202.939      0.02387748
         8210.261      0.02186557
         8217.588      0.01983118
         8224.918      0.01798107
         8232.259      0.01622931
         8239.602      0.01463145
          8246.95      0.01314861
         8254.311      0.01179395
         8261.673      0.01056204
         8269.047     0.009463144
         8276.427     0.008446483
         8283.809     0.007591065
         8291.197     0.006847543
         8298.597     0.006182089
         8305.999     0.005641697
         8313.412     0.005187896
         8320.827     0.004781018
         8328.253     0.004425514
         8335.687     0.004075577
         8343.121     0.003743281
         8350.563     0.003439522
         8358.011     0.003166916
         8365.471     0.002915141
         8372.937     0.002670209
         8380.409     0.002446289
         8387.879     0.002247735
         8395.365     0.002093219
         8402.854     0.001928779
         8410.353     0.001802908
         8417.859     0.001670879
         8425.367     0.001561801
         8432.887     0.001449855
         8440.408      0.00133125
         8447.937     0.001230926
         8455.477     0.001147063
         8463.019     0.001069196
         8470.571     9.922133E-4
         8478.127     9.312258E-4
         8485.693     8.705304E-4
         8493.262     8.154278E-4
         8500.842     7.672855E-4
         8508.425     7.179081E-4
         8516.019     6.766820E-4
         8523.614     6.377756E-4
         8531.221     5.999996E-4
          8538.83     5.672970E-4
         8546.446     5.352361E-4
         8554.074     5.065075E-4
         8561.704     4.802176E-4
         8569.345     4.525874E-4
         8576.993     4.296825E-4
         8584.644     4.060581E-4
         8592.301     3.831821E-4
         8599.969     3.637812E-4
          8607.64     3.435966E-4
         8615.321     3.267056E-4
         8623.006     3.107446E-4
         8630.702     2.942820E-4
         8638.405     2.811219E-4
         8646.105     2.681264E-4
         8653.821     2.563455E-4
          8661.54     2.458960E-4
         8669.271     2.359162E-4
         8677.008     2.250577E-4
         8684.747     2.159607E-4
         8692.493     2.074978E-4
         8700.251     1.979924E-4
         8708.012     1.899272E-4
         8715.783     1.820015E-4
         8723.563     1.744572E-4
         8731.343     1.673413E-4
         8739.136     1.603667E-4
         8746.926     1.543165E-4
         8754.732     1.485693E-4
         8762.546     1.432091E-4
         8770.361     1.383912E-4
         8778.188     1.336415E-4
         8786.019     1.298000E-4
         8793.859     1.255652E-4
         8801.703     1.209262E-4
         8809.554     1.172541E-4
         8817.416     1.123908E-4
         8825.286     1.078786E-4
         8833.157     1.033098E-4
         8841.041     9.846177E-5
         8848.922     9.436380E-5
         8856.819     9.017641E-5
         8864.724     8.609123E-5
         8872.631     8.203250E-5
          8880.55     7.790776E-5
         8888.476     7.430039E-5
         8896.403     7.092205E-5
         8904.338     6.773275E-5
          8912.28     6.461731E-5
         8920.234     6.141661E-5
         8928.195     5.840991E-5
         8936.159     5.561439E-5
         8944.135     5.327277E-5
         8952.117     5.120349E-5
         8960.097     4.890269E-5
         8968.094     4.761044E-5
         8976.093     4.591601E-5
         8984.104     4.432073E-5
         8992.122     4.280804E-5
         9000.143     4.094383E-5
         9008.175     3.915404E-5
         9016.205     3.720717E-5
         9024.252     3.543181E-5
         9032.306     3.375635E-5
         9040.362     3.184080E-5
         9048.431     2.975494E-5
         9056.506     2.809048E-5
         9064.579     2.662817E-5
         9072.669     2.516988E-5
         9080.761     2.356447E-5
         9088.865     2.187137E-5
         9096.978     2.037935E-5
         9105.092     1.930172E-5
         9113.218     1.816386E-5
         9121.341     1.672194E-5
         9129.481     1.588238E-5
          9137.63     1.463032E-5
          9145.78     1.366358E-5
         9153.942     1.288445E-5
         9162.112     1.216226E-5
         9170.284     1.142514E-5
         9178.464     1.089842E-5
         9186.655     1.047167E-5
         9194.849     1.001841E-5
         9203.056     9.525268E-6
         9211.264     9.040908E-6
         9219.485     8.652645E-6
         9227.708     8.389950E-6
         9235.938     8.141797E-6
         9244.182     7.868241E-6
         9252.427     7.556398E-6
         9260.685     7.205796E-6
         9268.949     6.743530E-6
         9277.217     6.418117E-6
         9285.492     6.235694E-6
         9293.779     5.941744E-6
         9302.068     5.553457E-6
          9310.37     5.465304E-6
         9318.675     4.935276E-6
         9326.991     4.754291E-6
         9335.315     4.459505E-6
         9343.637     4.149553E-6
         9351.977     4.000548E-6
         9360.317     4.004250E-6
         9368.672     3.490741E-6
         9377.033     3.239028E-6
         9385.396     3.159785E-6
         9393.768     2.994644E-6
         9402.152     2.710298E-6
         9410.538     2.613441E-6
         9418.937     2.592683E-6
         9427.338     2.333476E-6
         9435.752     2.222907E-6
         9444.173     2.186494E-6
         9452.592     2.157652E-6
         9461.028     2.142349E-6
         9469.472     1.970620E-6
         9477.918     2.061116E-6
         9486.377     2.079012E-6
         9494.838     1.960104E-6
         9503.313     1.834038E-6
         9511.788     1.805362E-6
         9520.272     1.733018E-6
          9528.77     1.735403E-6
         9537.269     1.634497E-6
          9545.78     1.626818E-6
           9554.3     1.650005E-6
         9562.821     1.599923E-6
         9571.351     1.479654E-6
         9579.894     1.547780E-6
         9588.438     1.532360E-6
         9596.995     1.316261E-6
         9605.561     1.255701E-6
         9614.128     1.280832E-6
         9622.704     1.218414E-6
         9631.286     1.050081E-6
         9639.882     1.080054E-6
         9648.485     9.586096E-7
         9657.092     1.001458E-6
         9665.711     1.077843E-6
         9674.332     1.015829E-6
         9682.961     8.553709E-7
         9691.603     7.826459E-7
         9700.252     8.068664E-7
         9708.904     8.763503E-7
         9717.569     8.364566E-7
         9726.237     8.010650E-7
         9734.912     8.034939E-7
         9743.601     7.826063E-7
         9752.291     7.403123E-7
         9760.995     8.154537E-7
         9769.701     9.153338E-7
         9778.421     8.871086E-7
         9787.147     6.544857E-7
         9795.872     6.789717E-7
         9804.614     7.753220E-7
         9813.359     7.710327E-7
         9822.118     7.326514E-7
         9830.884     7.677232E-7
         9839.652     7.089727E-7
         9848.435     6.785812E-7
         9857.219     6.740200E-7
         9866.011     6.134910E-7
         9874.816     5.894278E-7
         9883.624     5.977570E-7
         9892.444     5.864601E-7
         9901.273     5.719423E-7
         9910.104     4.466454E-7
         9918.944     4.619518E-7
         9927.791     4.444657E-7
         9936.651     3.727627E-7
         9945.521     3.590059E-7
         9954.391     3.626727E-7
         9963.275     3.394257E-7
         9972.162     3.293675E-7
         9981.057     3.553434E-7
         9989.964     2.998048E-7
          9998.88     3.311953E-7
          10007.8     2.993443E-7
         10016.72     3.021106E-7
         10025.67     2.987739E-7
          10034.6     3.048565E-7
         10043.56     3.116762E-7
         10052.52     2.953003E-7
         10061.49     2.976364E-7
         10070.47     3.403739E-7
         10079.46     2.761619E-7
         10088.45     2.498649E-7
         10097.44     2.691744E-7
         10106.46     3.176466E-7
         10115.48     3.323028E-7
          10124.5     3.093920E-7
         10133.53     2.820475E-7
         10142.58     2.704465E-7
         10151.62     2.711228E-7
         10160.68     2.671150E-7
         10169.74     2.674078E-7
         10178.81     2.521388E-7
          10187.9     2.511253E-7
         10196.99     2.260620E-7
         10206.08     2.114333E-7
         10215.19     1.971382E-7
         10224.31     1.899813E-7
         10233.43     1.854156E-7
         10242.56     1.772016E-7
         10251.69     1.952174E-7
         10260.85     1.673264E-7
           10270.     1.297768E-7
         10279.16     1.407922E-7
         10288.33     1.626777E-7
         10297.51     1.593332E-7
          10306.7     1.612400E-7
         10315.89     1.588662E-7
          10325.1     1.466398E-7
          10334.3     1.359362E-7
         10343.53     1.350256E-7
         10352.76     1.379682E-7
         10361.99     1.306664E-7
         10371.25     1.066275E-7
          10380.5     1.188920E-7
         10389.76     1.046776E-7
         10399.02     9.789921E-8
          10408.3     9.824610E-8
         10417.59     1.001193E-7
         10426.89     9.845942E-8
         10436.19     9.556997E-8
         10445.49     9.071147E-8
         10454.82     8.065780E-8
         10464.15     7.144985E-8
         10473.48     6.896174E-8
         10482.82     6.729334E-8
         10492.17     6.216539E-8
         10501.54     6.022066E-8
         10510.91     6.074723E-8
         10520.29     5.847456E-8
         10529.67     6.214404E-8
         10539.07     5.958306E-8
         10548.47     5.617983E-8
         10557.88     5.219171E-8
         10567.31     5.007461E-8
         10576.73     4.754685E-8
         10586.17     4.630827E-8
         10595.61     4.776780E-8
         10605.06     4.807763E-8
         10614.53     4.407272E-8
           10624.     4.093510E-8
         10633.48     4.249626E-8
         10642.96     4.207645E-8
         10652.45     3.829554E-8
         10661.97     3.980692E-8
         10671.48     4.023904E-8
         10680.99     3.919633E-8
         10690.53     3.845665E-8
         10700.07     3.801805E-8
         10709.61     4.358109E-8
         10719.16     4.247976E-8
         10728.72     4.033082E-8
         10738.31     3.938307E-8
         10747.88     4.025677E-8
         10757.47     4.111180E-8
         10767.08     4.462606E-8
         10776.67     4.490657E-8
         10786.29     4.448280E-8
         10795.91     4.504396E-8
         10805.54     4.616719E-8
         10815.18     4.600482E-8
         10824.83     4.500300E-8
         10834.49     4.399737E-8
         10844.17     4.294744E-8
         10853.84     4.163823E-8
         10863.52     3.930184E-8
         10873.21     3.744892E-8
         10882.91     3.650009E-8
         10892.63     3.565508E-8
         10902.35     3.431848E-8
         10912.07     3.168833E-8
         10921.81     3.016543E-8
         10931.54     2.929730E-8
         10941.31     2.762889E-8
         10951.07     2.661743E-8
         10960.83     2.519297E-8
         10970.62     2.468047E-8
         10980.39     2.377048E-8
          10990.2     2.287996E-8
           11000.     2.065442E-8
