#  Table wf2f555wsys.tab  Mon 12:21:47 02-Jun-97
#
#      WAVELENGTH      THROUGHPUT
#       angstroms                
#
            1850.     6.983449E-9
         1851.651     6.547984E-7
         1853.301     1.308137E-6
         1854.956     1.968921E-6
         1856.611     2.635042E-6
         1858.267     3.307451E-6
         1859.925     3.986582E-6
         1861.584     4.128777E-6
         1863.246     4.246549E-6
         1864.909     4.365332E-6
         1866.572     4.485042E-6
         1868.237     4.605769E-6
         1869.904     4.727582E-6
         1871.573     4.729039E-6
         1873.242     4.722936E-6
         1874.913     4.716630E-6
         1876.585     4.710121E-6
          1878.26     4.703403E-6
         1879.937     4.694715E-6
         1881.613     4.179321E-6
         1883.292     3.639556E-6
         1884.973     3.094886E-6
         1886.654     2.545932E-6
         1888.338     1.992002E-6
         1890.023     1.439252E-6
         1891.709     1.304924E-6
         1893.396     1.169429E-6
         1895.086     1.032692E-6
         1896.775     8.949601E-7
         1898.469     7.557991E-7
         1900.163     6.584009E-7
         1901.857     9.631442E-7
         1903.555     1.270820E-6
         1905.254     1.581063E-6
         1906.953     1.893656E-6
         1908.655     2.209011E-6
         1910.357     2.414810E-6
         1912.061     2.198701E-6
         1913.768     1.980589E-6
         1915.476     1.760575E-6
         1917.184     1.538798E-6
         1918.894     1.315109E-6
         1920.606     1.108938E-6
          1922.32     9.365077E-7
         1924.035     7.626015E-7
         1925.752     5.873023E-7
          1927.47     4.104189E-7
         1929.189     2.321356E-7
          1930.91     1.368126E-7
         1932.634     1.162303E-7
         1934.358     9.547146E-8
         1936.084     7.454910E-8
         1937.811     5.344653E-8
          1939.54     3.215264E-8
          1941.27     1.340314E-7
         1943.003     2.817326E-7
         1944.737     4.306756E-7
          1946.47     5.806731E-7
         1948.207     7.320984E-7
         1949.947     8.848621E-7
         1951.685     8.659140E-7
         1953.427     8.413091E-7
         1955.171     8.164753E-7
         1956.913     7.914414E-7
          1958.66     7.661460E-7
         1960.408     7.500288E-7
         1962.157     7.648025E-7
         1963.908     7.796890E-7
         1965.658     7.946607E-7
         1967.413     8.097540E-7
         1969.169     8.249531E-7
         1970.925     7.685456E-7
         1972.684     6.468341E-7
         1974.444     5.241615E-7
         1976.205     4.004494E-7
         1977.969     2.755474E-7
         1979.734     1.497465E-7
           1981.5     1.554529E-7
         1983.268     1.848633E-7
         1985.037     2.144970E-7
         1986.809     2.443874E-7
         1988.581     2.744999E-7
         1990.355     3.158012E-7
         1992.131     4.012180E-7
         1993.908     4.873302E-7
         1995.688     5.742470E-7
         1997.467     6.617018E-7
          1999.25     7.499656E-7
         2001.034     7.080274E-7
         2002.818     5.703536E-7
         2004.606     4.310745E-7
         2006.396     2.905139E-7
         2008.184     1.487745E-7
         2009.976     5.492092E-9
         2011.769     1.354972E-8
         2013.565     2.374388E-8
         2015.362     3.403591E-8
         2017.158     4.441282E-8
         2018.958     5.490045E-8
          2020.76     5.796266E-8
         2022.563     5.069760E-8
         2024.368     4.335704E-8
         2026.173     3.595060E-8
         2027.982     2.846792E-8
         2029.791     2.091827E-8
         2031.602     1.831696E-8
         2033.414     1.635165E-8
         2035.228     1.436742E-8
         2037.044     1.236298E-8
         2038.861     1.034065E-8
         2040.681     3.868133E-8
         2042.502     1.183561E-7
         2044.324     1.987223E-7
         2046.147     2.798202E-7
         2047.974     3.617135E-7
           2049.8     4.443013E-7
          2051.63     3.864758E-7
         2053.461     3.107165E-7
         2055.291     2.343460E-7
         2057.125     1.571882E-7
         2058.961     7.932100E-8
         2060.798     4.457522E-8
         2062.637     6.680149E-8
         2064.477     8.921082E-8
         2066.318     1.118158E-7
         2068.164     1.346475E-7
         2070.007     1.575429E-7
         2071.855     1.560582E-7
         2073.704     1.545568E-7
         2075.553     1.530393E-7
         2077.405     1.515049E-7
         2079.259     1.499520E-7
         2081.113     1.336026E-7
         2082.971     1.072049E-7
         2084.829     8.059570E-8
         2086.688     5.376035E-8
          2088.55     2.667653E-8
         2090.414     5.400826E-9
         2092.279     5.178153E-9
         2094.145     4.953566E-9
         2096.014     4.726819E-9
         2097.885     4.498113E-9
         2099.756     4.267557E-9
          2101.63     8.047077E-9
         2103.503     1.245552E-8
         2105.381     1.690394E-8
          2107.26     2.138851E-8
         2109.139     2.590584E-8
         2111.022     3.312309E-8
         2112.906     4.264807E-8
         2114.789     5.223411E-8
         2116.677     6.190636E-8
         2118.564     7.164640E-8
         2120.455     7.614229E-8
         2122.348     6.381286E-8
         2124.241     5.139963E-8
         2126.135     3.889115E-8
         2128.033     2.628210E-8
         2129.932     1.357694E-8
         2131.832     1.157330E-8
         2133.734     9.954653E-9
         2135.637     8.324484E-9
         2137.544     6.680433E-9
          2139.45     5.027848E-9
         2141.359     5.946819E-9
          2143.27     7.923187E-9
         2145.182     9.913018E-9
         2147.096     1.191841E-8
         2149.011     1.393712E-8
         2150.929     1.492456E-8
         2152.848     1.480023E-8
         2154.768     1.467481E-8
         2156.692     1.454816E-8
         2158.615     1.442065E-8
         2160.541     1.381807E-8
         2162.469     1.199419E-8
         2164.397     1.016049E-8
          2166.33     8.311100E-9
         2168.263     6.450398E-9
         2170.196     5.618092E-9
         2172.133     1.401949E-8
          2174.07     2.246564E-8
         2176.011     3.096953E-8
         2177.953     3.952500E-8
         2179.895     4.812572E-8
          2181.84     4.688423E-8
         2183.787     4.506911E-8
         2185.735     4.324432E-8
         2187.686     4.140799E-8
         2189.637     3.956213E-8
          2191.59     4.770440E-8
         2193.546     5.818603E-8
         2195.503     6.871947E-8
         2197.462     7.930092E-8
         2199.423     8.994376E-8
         2201.385     8.131637E-8
         2203.348     6.440763E-8
         2205.315     4.720503E-8
         2207.283     2.971972E-8
         2209.252     1.196140E-8
         2211.222     6.645334E-9
         2213.196     9.102912E-9
          2215.17     1.159604E-8
         2217.147     1.412860E-8
         2219.125     1.669893E-8
         2221.104     3.627065E-8
         2223.086     6.973016E-8
         2225.071     1.037047E-7
         2227.055     1.381121E-7
         2229.042     1.730601E-7
         2231.031     1.770038E-7
         2233.021     1.515059E-7
         2235.015     1.255985E-7
         2237.008     9.934333E-8
         2239.003     7.270400E-8
         2241.002     7.709836E-8
         2242.999     1.130021E-7
         2245.002     1.494581E-7
         2247.005     1.863625E-7
         2249.009     2.237615E-7
         2251.016     2.200028E-7
         2253.024     1.752810E-7
         2255.033     1.299573E-7
         2257.046     8.399553E-8
         2259.061     3.742603E-8
         2261.075     1.874291E-8
         2263.092     2.485417E-8
         2265.112     3.104592E-8
         2267.134     3.731481E-8
         2269.156     4.365656E-8
         2271.181     4.173146E-8
         2273.207     3.377872E-8
         2275.234     2.572595E-8
         2277.266     1.756291E-8
         2279.296     9.315743E-9
          2281.33     1.001141E-8
         2283.366     1.553672E-8
         2285.402     2.112043E-8
         2287.441     2.677618E-8
         2289.483     3.249688E-8
         2291.525     3.003394E-8
          2293.57     2.472435E-8
         2295.615     1.935916E-8
         2297.663     1.392861E-8
         2299.715     8.429068E-9
         2301.765     8.978255E-9
          2303.82     1.052642E-8
         2305.876     1.209236E-8
         2307.932     1.367522E-8
         2309.992     1.527714E-8
         2312.051     1.561225E-8
         2314.116     1.594616E-8
          2316.18     1.628277E-8
         2318.246     1.662239E-8
         2320.315     1.661856E-8
         2322.385     1.467181E-8
         2324.457     1.270108E-8
         2326.531     1.070883E-8
         2328.606     8.693585E-9
         2330.685     7.445673E-9
         2332.764     7.805724E-9
         2334.845     8.169446E-9
         2336.927     8.536769E-9
         2339.012     8.907752E-9
         2341.101     9.734880E-9
         2343.188     1.097706E-8
         2345.279     1.223229E-8
         2347.372     1.350122E-8
         2349.467     1.478302E-8
         2351.562     1.665849E-8
         2353.661     1.875405E-8
         2355.759     2.086781E-8
         2357.862     2.300552E-8
         2359.966     2.516431E-8
         2362.071     2.394662E-8
         2364.179     2.265850E-8
         2366.288     2.135735E-8
         2368.398     2.004222E-8
         2370.512     1.863172E-8
         2372.628     1.695300E-8
         2374.744     1.525828E-8
         2376.863     1.354531E-8
         2378.983     1.181604E-8
         2381.105     2.049139E-8
          2383.23     3.889861E-8
         2385.357     5.747898E-8
         2387.485     7.622451E-8
         2389.615     9.514426E-8
         2391.747     8.436623E-8
         2393.881     6.686991E-8
         2396.017     4.919882E-8
         2398.154     3.137459E-8
         2400.293     1.750392E-8
         2402.435     2.958687E-8
          2404.58     4.177932E-8
         2406.724     5.407185E-8
         2408.872     6.648022E-8
         2411.022     6.909507E-8
         2413.171     6.076465E-8
         2415.326     5.234434E-8
         2417.479     4.386539E-8
         2419.637     3.529968E-8
         2421.796     3.306581E-8
         2423.957     3.211322E-8
          2426.12     3.115116E-8
         2428.284     3.018079E-8
         2430.451     3.074976E-8
         2432.619     3.724189E-8
         2434.789     4.378623E-8
         2436.962     5.038816E-8
         2439.136     5.704270E-8
         2441.312     8.250797E-8
          2443.49     1.205747E-7
          2445.67     1.589691E-7
         2447.853     1.976750E-7
         2450.036     2.353785E-7
         2452.222     1.974996E-7
         2454.409     1.593151E-7
           2456.6     1.207982E-7
         2458.792     8.197761E-8
         2460.985     6.624970E-8
          2463.18     7.919094E-8
         2465.379     9.224018E-8
         2467.579     1.053876E-7
         2469.778     1.186189E-7
         2471.983     1.244843E-7
          2474.19     1.295548E-7
         2476.396     1.346526E-7
         2478.606     1.397929E-7
         2480.817     1.480252E-7
         2483.029     1.615610E-7
         2485.247     1.752144E-7
         2487.462     1.889419E-7
         2489.682     2.027863E-7
         2491.904     1.707905E-7
         2494.125     1.309016E-7
         2496.353     9.063454E-8
         2498.579     5.011175E-8
         2500.808     2.336290E-8
          2503.04     2.127447E-8
         2505.272     1.917138E-8
         2507.509     1.705058E-8
         2509.745     1.491527E-8
         2511.985     1.718670E-8
         2514.225     2.004399E-8
         2516.468     2.292252E-8
         2518.714     2.582362E-8
         2520.962     3.264678E-8
          2523.21     4.474921E-8
         2525.462     5.694865E-8
         2527.715     6.922954E-8
         2529.971     8.160811E-8
         2532.229     6.710442E-8
         2534.486     5.215325E-8
         2536.748     3.707212E-8
          2539.01     2.185309E-8
         2541.277     1.461190E-8
         2543.545     1.360073E-8
         2545.813     1.258612E-8
         2548.084     1.156755E-8
         2550.358     1.249952E-8
         2552.635     2.391896E-8
         2554.911     3.537246E-8
         2557.191     4.687701E-8
         2559.471     5.841023E-8
         2561.755     5.927365E-8
         2564.042     5.689881E-8
         2566.329     5.451570E-8
         2568.619     5.212178E-8
         2570.908     4.774001E-8
         2573.205     4.030721E-8
           2575.5     3.285642E-8
         2577.797     2.537590E-8
         2580.097     1.825886E-8
         2582.399     2.007942E-8
         2584.704     2.190794E-8
          2587.01     2.374284E-8
         2589.318     2.558349E-8
         2591.629     2.770313E-8
          2593.94     2.994343E-8
         2596.254     3.219155E-8
         2598.573     3.445077E-8
         2600.889     3.368348E-8
          2603.21     2.802779E-8
         2605.532     2.235386E-8
         2607.856     1.665763E-8
         2610.185     1.163361E-8
         2612.512     1.473693E-8
         2614.843     1.785556E-8
         2617.177     2.098616E-8
          2619.51     2.412475E-8
         2621.849     2.864993E-8
         2624.188     3.355074E-8
         2626.528     3.846989E-8
         2628.873     4.341089E-8
         2631.217     4.520377E-8
         2633.566     4.406542E-8
         2635.916     4.292208E-8
         2638.267     4.177436E-8
          2640.62     4.636676E-8
         2642.977     6.707543E-8
         2645.334     8.785216E-8
         2647.695     1.087202E-7
         2650.057     1.285514E-7
         2652.422     1.036007E-7
         2654.788     7.856761E-8
         2657.157     5.341904E-8
         2659.526     2.820221E-8
         2661.899     2.630953E-8
         2664.275     3.027732E-8
         2666.652     3.425787E-8
         2669.031     3.825559E-8
         2671.412     3.787031E-8
         2673.796     3.445880E-8
         2676.181     3.103592E-8
          2678.57     2.759719E-8
          2680.96     2.421154E-8
          2683.35     2.091612E-8
         2685.746     1.760178E-8
          2688.14     1.428043E-8
          2690.54     1.809038E-8
         2692.941     4.660872E-8
         2695.343     7.522199E-8
         2697.748     1.039586E-7
         2700.153     1.305375E-7
         2702.563     1.243042E-7
         2704.975     1.180256E-7
         2707.387     1.117049E-7
         2709.804     1.053336E-7
         2712.222     1.071719E-7
         2714.642     1.097506E-7
         2717.063     1.123449E-7
         2719.486     1.149554E-7
         2721.915     9.950769E-8
         2724.343     7.910685E-8
         2726.772     5.856295E-8
         2729.205     3.787572E-8
          2731.64     2.807519E-8
         2734.078     2.358195E-8
         2736.517     1.905998E-8
         2738.958     1.450698E-8
         2741.402     1.316796E-8
         2743.849     1.424340E-8
         2746.296     1.532523E-8
         2748.747     1.641487E-8
         2751.198     1.644508E-8
         2753.653     1.535943E-8
         2756.111     1.427140E-8
         2758.569     1.318164E-8
         2761.031     1.422227E-8
         2763.495     1.823078E-8
         2765.958     2.224312E-8
         2768.427     2.626884E-8
         2770.898     2.764565E-8
         2773.369     2.436454E-8
         2775.844     2.107446E-8
          2778.32     1.777930E-8
         2780.799     2.829338E-8
          2783.28     6.795317E-8
         2785.764     1.076999E-7
         2788.249     1.475024E-7
         2790.736     1.641487E-7
         2793.227     1.254354E-7
          2795.72     8.664274E-8
         2798.213     4.779340E-8
         2800.709     1.977843E-8
         2803.209     1.923935E-8
         2805.709     1.869948E-8
         2808.213     1.815816E-8
         2810.718     1.743434E-8
         2813.226     1.625515E-8
         2815.736     1.507433E-8
         2818.247     1.389119E-8
         2820.764     1.512394E-8
         2823.278     2.190670E-8
         2825.798     2.871099E-8
          2828.32     3.552827E-8
         2830.843     4.614293E-8
         2833.369     6.434998E-8
         2835.898     8.259307E-8
         2838.426     1.008475E-7
         2840.959     1.157850E-7
         2843.495     1.252013E-7
         2846.031     1.346292E-7
         2848.571     1.440816E-7
         2851.112     1.347254E-7
         2853.655     1.011221E-7
         2856.202     6.743886E-8
         2858.751     3.369497E-8
         2861.301     4.601964E-8
         2863.853     1.027160E-7
         2866.407     1.595178E-7
         2868.965     2.164577E-7
         2871.526     2.217493E-7
         2874.087     1.919356E-7
         2876.652     1.620481E-7
         2879.218     1.321292E-7
         2881.788     1.075368E-7
         2884.358     8.528362E-8
         2886.931     6.299053E-8
         2889.507     4.064687E-8
         2892.084     3.220856E-8
         2894.666     2.705211E-8
         2897.248     2.188958E-8
         2899.832     1.671901E-8
         2902.421     1.552137E-8
          2905.01     1.460390E-8
         2907.601     1.368802E-8
         2910.198     1.304886E-8
          2912.79     1.575338E-8
         2915.392     1.845929E-8
         2917.992     2.115637E-8
         2920.594     2.299161E-8
         2923.203     2.193088E-8
         2925.807     2.087468E-8
          2928.42     1.981796E-8
         2931.033     1.849999E-8
         2933.646     1.678319E-8
         2936.266     1.506675E-8
         2938.885     1.335597E-8
         2941.506     1.319327E-8
         2944.131     1.417447E-8
         2946.757     1.515290E-8
         2949.387     1.612972E-8
         2952.018     5.187790E-8
         2954.653     9.812234E-8
          2957.29     1.442654E-7
         2959.926     1.902510E-7
         2962.567     1.584941E-7
          2965.21     1.245808E-7
         2967.856     9.072630E-8
         2970.505     6.086453E-8
         2973.155     4.770845E-8
         2975.808     3.457359E-8
         2978.461     2.148546E-8
         2981.121     1.849263E-8
          2983.78     2.934178E-8
         2986.441     4.016521E-8
         2989.104     5.096177E-8
         2991.772     4.702984E-8
         2994.442     3.568243E-8
         2997.113     2.436826E-8
         2999.788     1.307405E-8
         3002.464     1.376954E-8
         3005.142     1.548939E-8
         3007.826     1.720705E-8
         3010.507     2.209197E-8
         3013.194     4.059585E-8
         3015.883     5.905291E-8
         3018.573     7.745117E-8
         3021.267     7.879390E-8
          3023.96     6.099641E-8
          3026.66     4.321227E-8
          3029.36     2.549482E-8
         3032.062     2.126169E-8
          3034.77     2.120555E-8
         3037.475     2.114948E-8
         3040.186     2.092299E-8
         3042.897     1.838892E-8
         3045.612     1.586131E-8
         3048.332     1.333725E-8
         3051.051     1.181722E-8
         3053.772     1.187863E-8
         3056.497     1.193980E-8
         3059.222     1.200063E-8
         3061.954     1.523474E-8
         3064.685     1.971653E-8
         3067.418     2.418589E-8
         3070.156     2.840745E-8
         3072.896     2.869422E-8
         3075.637     2.897974E-8
          3078.38     2.926417E-8
         3081.126     2.778898E-8
         3083.877     2.378593E-8
         3086.628     1.979906E-8
         3089.381     1.582416E-8
         3092.137     1.637892E-8
         3094.895     1.823920E-8
         3097.659     2.009602E-8
         3100.422     2.476443E-8
         3103.187     4.513861E-8
         3105.955     6.558868E-8
         3108.729     8.614018E-8
         3111.501     1.113418E-7
         3114.277     1.405438E-7
         3117.056     1.698724E-7
         3119.836     1.992892E-7
         3122.621     1.947128E-7
         3125.406     1.879843E-7
         3128.195     1.812265E-7
         3130.985     1.606386E-7
         3133.778     1.146213E-7
         3136.575     6.840460E-8
         3139.373     2.204440E-8
         3142.175     1.164167E-8
         3144.979     1.165830E-8
         3147.784     1.167494E-8
         3150.592     1.290706E-8
         3153.405     1.871502E-8
         3156.218     2.453691E-8
         3159.035     3.038440E-8
         3161.851     3.038056E-8
         3164.674     2.730394E-8
         3167.497     2.421954E-8
         3170.322     2.174676E-8
         3173.152     2.411700E-8
         3175.982     2.649469E-8
         3178.816     2.888252E-8
         3181.652     3.546934E-8
          3184.49     4.508986E-8
         3187.333     5.475927E-8
         3190.175     6.469054E-8
         3193.022     7.841845E-8
          3195.87     9.218981E-8
         3198.722     1.060201E-7
         3201.577     1.460824E-7
         3204.433     2.075248E-7
         3207.291     2.691938E-7
         3210.151     3.242026E-7
         3213.018     2.557644E-7
         3215.884     1.871586E-7
         3218.752     1.182911E-7
         3221.623     7.936124E-8
         3224.499     6.353394E-8
         3227.376     4.764646E-8
         3230.255     4.094273E-8
         3233.136     1.293776E-7
          3236.02     2.181471E-7
         3238.908     3.073050E-7
         3241.799     3.139401E-7
          3244.69     2.702229E-7
         3247.584     2.263345E-7
         3250.485     1.906711E-7
         3253.384     1.970368E-7
         3256.286     2.034259E-7
         3259.192     2.098424E-7
         3262.097     1.770476E-7
          3265.01     1.288823E-7
         3267.922     8.059865E-8
         3270.837     4.500237E-8
         3273.758     4.128365E-8
         3276.675     3.756027E-8
         3279.601     3.381321E-8
         3282.526     1.043530E-7
         3285.454     1.869362E-7
         3288.388     2.699294E-7
         3291.319     2.832118E-7
         3294.257     2.108684E-7
         3297.195     1.382964E-7
         3300.137     6.854328E-8
         3303.083     6.273417E-8
         3306.029     5.690602E-8
         3308.979     5.105250E-8
         3311.931     5.238875E-8
         3314.885     5.754892E-8
         3317.844     6.273163E-8
         3320.803     7.911537E-8
         3323.767     1.256928E-7
         3326.731     1.724212E-7
           3329.7     2.193587E-7
          3332.67     1.723368E-7
         3335.643     1.145462E-7
         3338.622     5.646596E-8
         3341.599     9.217843E-8
          3344.58     2.091971E-7
         3347.563     3.266564E-7
         3350.551     4.089371E-7
         3353.541     3.332241E-7
         3356.532     2.572612E-7
         3359.528     1.809608E-7
         3362.524     1.994083E-7
         3365.525     2.357579E-7
         3368.527     2.722265E-7
         3371.532     3.587525E-7
         3374.541     4.938106E-7
         3377.551     6.293149E-7
         3380.565     7.308977E-7
         3383.582     6.829111E-7
         3386.598     6.347940E-7
         3389.623     5.863974E-7
         3392.646     5.796844E-7
         3395.672     5.789176E-7
         3398.705     5.781447E-7
         3401.732     5.945639E-7
          3404.77     6.240047E-7
         3407.807     6.535230E-7
         3410.847     6.723277E-7
         3413.893     6.630837E-7
         3416.938     6.538124E-7
         3419.985     6.445016E-7
         3423.038     7.211640E-7
         3426.089     7.984499E-7
         3429.148     8.761810E-7
         3432.207     9.580731E-7
         3435.268     1.041815E-6
         3438.334     1.125940E-6
         3441.401     1.134997E-6
         3444.473     1.054233E-6
         3447.545     9.732013E-7
         3450.622     9.134491E-7
         3453.701     9.392384E-7
         3456.782     9.651093E-7
         3459.865     9.910824E-7
         3462.951     9.283295E-7
         3466.042     8.612103E-7
         3469.135     7.938183E-7
         3472.229     8.969227E-7
         3475.326     1.066864E-6
         3478.426     1.237489E-6
         3481.532     1.311667E-6
         3484.638     1.285966E-6
         3487.746     1.260158E-6
         3490.859     1.226739E-6
         3493.972     1.173512E-6
         3497.091     1.120035E-6
          3500.21     1.072776E-6
         3503.334     1.114457E-6
          3506.46     1.156308E-6
         3509.586     1.198278E-6
          3512.72     1.228455E-6
         3515.852     1.256867E-6
         3518.989     1.285425E-6
          3522.13     1.243644E-6
         3525.271     1.168207E-6
         3528.418     1.092406E-6
         3531.563     1.106183E-6
         3534.717     1.211355E-6
          3537.87     1.316841E-6
         3541.025     1.394133E-6
         3544.188     1.412121E-6
         3547.349     1.430156E-6
         3550.513     1.455123E-6
         3553.679     1.515764E-6
         3556.849     1.576658E-6
         3560.026     1.637271E-6
         3563.201     1.622848E-6
         3566.379     1.608357E-6
         3569.562     1.593787E-6
         3572.746     1.512989E-6
         3575.935     1.421198E-6
         3579.124     1.329068E-6
         3582.316     1.332901E-6
         3585.513     1.373304E-6
         3588.714     1.413881E-6
         3591.915     1.536506E-6
         3595.118     1.714822E-6
         3598.325     1.893920E-6
         3601.538     1.997572E-6
         3604.751     2.018206E-6
         3607.966     2.038921E-6
         3611.184     2.035232E-6
         3614.409     1.989278E-6
         3617.633     1.943173E-6
         3620.859     1.938084E-6
         3624.089     2.046817E-6
         3627.322     2.156011E-6
         3630.561     2.249937E-6
         3633.799     2.268230E-6
          3637.04     2.286594E-6
         3640.286     2.307399E-6
         3643.533     2.352747E-6
         3646.785     2.398309E-6
         3650.038     2.444095E-6
         3653.295     2.495512E-6
         3656.556     2.547148E-6
         3659.815     2.598932E-6
         3663.082     2.580897E-6
         3666.353     2.558544E-6
         3669.621     2.536119E-6
         3672.896     2.583291E-6
         3676.172     2.639780E-6
         3679.451     2.696501E-6
         3682.737     2.775440E-6
         3686.022     2.859024E-6
         3689.309     2.942958E-6
           3692.6     2.980732E-6
         3695.896     3.006281E-6
         3699.194     3.031931E-6
         3702.494     3.039456E-6
         3705.798     3.041099E-6
         3709.101     3.042734E-6
         3712.412     3.068734E-6
         3715.725     3.103941E-6
         3719.039     3.139267E-6
         3722.358     3.138771E-6
         3725.678     3.123570E-6
         3729.004     3.108278E-6
          3732.33     3.165321E-6
         3735.659     3.253657E-6
         3738.995     3.342482E-6
          3742.33     3.359945E-6
         3745.668     3.346488E-6
         3749.009     3.332954E-6
         3752.354     3.333089E-6
         3755.703     3.339014E-6
         3759.053     3.344946E-6
         3762.408     3.418515E-6
         3765.764     3.518989E-6
         3769.125     3.619949E-6
         3772.487     3.659057E-6
         3775.852     3.676370E-6
         3779.222     3.693756E-6
         3782.594     3.725639E-6
         3785.968     3.761966E-6
         3789.345     3.798438E-6
         3792.725     3.838107E-6
         3796.112     3.878718E-6
         3799.498     3.919443E-6
         3802.887     3.890818E-6
         3806.279     3.849932E-6
         3809.676     3.808817E-6
         3813.076     3.871058E-6
         3816.477     3.944452E-6
         3819.881     4.018151E-6
          3823.29     4.050559E-6
           3826.7     4.081564E-6
         3830.116     4.112809E-6
         3833.532     4.147103E-6
         3836.951     4.181527E-6
         3840.378     4.218376E-6
         3843.803     4.273504E-6
         3847.232     4.328854E-6
         3850.663     4.382869E-6
         3854.102     4.430652E-6
          3857.54     4.478568E-6
          3860.98     4.508073E-6
         3864.426     4.490868E-6
         3867.875     4.473568E-6
         3871.325     4.473416E-6
         3874.778     4.500958E-6
         3878.234     4.528599E-6
         3881.695     4.517468E-6
         3885.157     4.465690E-6
         3888.625     4.413633E-6
         3892.094     4.484219E-6
         3895.565     4.635983E-6
         3899.044     4.788581E-6
         3902.521     4.775288E-6
         3906.002     4.698680E-6
         3909.489     4.621679E-6
         3912.975     4.670173E-6
         3916.468     4.740585E-6
         3919.961     4.811232E-6
         3923.457     4.788864E-6
         3926.961     4.765296E-6
         3930.462     4.761927E-6
         3933.969     4.892477E-6
         3937.478     5.023483E-6
         3940.992     5.097745E-6
          3944.51     5.026171E-6
         3948.028     4.954319E-6
          3951.55     4.917325E-6
         3955.074     4.925041E-6
         3958.606     4.932781E-6
         3962.137     4.937699E-6
         3965.671     4.940773E-6
          3969.21     4.943842E-6
          3972.75     4.954619E-6
         3976.296     4.967651E-6
         3979.843     4.980711E-6
         3983.395     5.002942E-6
          3986.95     5.025671E-6
         3990.504     5.051798E-6
         3994.065     5.098400E-6
          3997.63     5.145177E-6
         4001.196     5.195592E-6
         4004.767     5.253050E-6
         4008.339     5.310503E-6
         4011.914     5.347806E-6
         4015.494     5.367608E-6
         4019.078     5.387417E-6
         4022.663     5.314529E-6
         4026.251     5.209484E-6
         4029.844     5.104325E-6
         4033.441     5.065494E-6
         4037.039     5.029667E-6
         4040.639     5.005641E-6
         4044.243     5.036393E-6
         4047.855     5.067194E-6
         4051.465     5.078146E-6
         4055.079     5.060067E-6
         4058.698     5.041966E-6
         4062.316     5.034074E-6
         4065.944     5.031906E-6
          4069.57     5.029735E-6
           4073.2     5.041452E-6
         4076.838     5.055050E-6
         4080.472     5.058570E-6
         4084.114     4.994593E-6
         4087.756     4.930631E-6
         4091.405     4.888770E-6
         4095.056     4.882311E-6
         4098.708     4.875853E-6
         4102.367     4.903942E-6
         4106.026     4.950876E-6
         4109.688     4.997810E-6
         4113.356     5.013889E-6
         4117.025     5.027086E-6
         4120.699     5.038884E-6
         4124.375     5.044695E-6
         4128.056     5.050509E-6
         4131.738     5.045436E-6
         4135.423     5.028181E-6
         4139.116     5.010897E-6
         4142.808     4.964859E-6
         4146.503     4.909739E-6
         4150.201     4.857910E-6
         4153.903     4.863419E-6
         4157.613     4.868930E-6
         4161.321     4.896474E-6
         4165.033     4.963852E-6
         4168.748     5.031233E-6
         4172.466     4.971557E-6
         4176.192     4.847163E-6
         4179.917     4.722903E-6
         4183.645     4.773886E-6
         4187.379     4.828895E-6
         4191.116     4.852886E-6
         4194.854     4.804042E-6
         4198.596     4.755193E-6
         4202.343     4.757155E-6
         4206.094     4.789656E-6
         4209.845     4.822220E-6
         4213.603     4.756837E-6
         4217.358     4.687141E-6
         4221.123     4.643136E-6
          4224.89     4.660245E-6
         4228.658     4.677387E-6
         4232.432     4.715409E-6
         4236.208     4.765018E-6
         4239.988     4.814779E-6
          4243.77     4.719045E-6
         4247.555     4.622595E-6
         4251.348     4.543244E-6
          4255.14     4.495481E-6
         4258.936     4.447585E-6
         4262.734     4.386625E-6
         4266.537     4.320456E-6
         4270.347     4.248946E-6
         4274.155     4.126490E-6
         4277.968     4.003690E-6
         4281.786     3.907960E-6
         4285.605     3.843316E-6
          4289.43     3.778467E-6
         4293.256     3.719239E-6
         4297.085     3.660870E-6
         4300.922     3.616571E-6
         4304.759     3.617430E-6
         4308.598     3.618287E-6
         4312.441     3.770358E-6
          4316.29     4.009919E-6
         4320.142     4.272684E-6
         4323.996     5.126563E-6
         4327.854     5.983070E-6
         4331.715     7.965934E-6
         4335.581     1.136549E-5
         4339.448     1.477120E-5
         4343.318     2.219212E-5
         4347.195     3.030485E-5
         4351.072     4.320505E-5
         4354.956     6.865910E-5
          4358.84     9.416113E-5
         4362.728     1.395642E-4
         4366.624     1.936088E-4
         4370.519     2.588951E-4
         4374.417     3.972682E-4
         4378.318     5.359708E-4
         4382.229     7.203765E-4
         4386.137     9.391087E-4
         4390.049     0.001162565
         4393.967     0.001714587
         4397.889     0.002268046
         4401.812     0.002948281
         4405.738      0.00377717
         4409.667     0.004608128
         4413.603     0.005687157
         4417.542     0.006791545
         4421.482     0.008062084
         4425.426       0.0096081
         4429.373      0.01115773
         4433.329      0.01279155
         4437.283      0.01444229
         4441.241      0.01617081
         4445.205      0.01806718
         4449.169      0.01996704
          4453.14      0.02174069
         4457.112      0.02348283
         4461.088       0.0252382
         4465.069      0.02702288
         4469.052      0.02881079
         4473.041      0.03037873
          4477.03      0.03187909
         4481.028      0.03335981
         4485.022      0.03476902
         4489.025      0.03618351
         4493.032      0.03735931
         4497.039      0.03845929
         4501.053      0.03958149
         4505.067      0.04076262
         4509.086      0.04195318
         4513.107      0.04293085
         4517.136      0.04385101
         4521.167      0.04475879
           4525.2      0.04562578
         4529.238      0.04649958
         4533.281      0.04724574
         4537.324      0.04796534
         4541.371      0.04866762
         4545.422      0.04933114
         4549.479       0.0499994
         4553.539      0.05058122
           4557.6      0.05115288
         4561.668      0.05170701
         4565.734      0.05223276
         4569.809      0.05276228
         4573.887      0.05324484
         4577.967      0.05372737
         4582.053      0.05419017
         4586.142      0.05463296
         4590.233      0.05507519
         4594.327      0.05547668
         4598.425      0.05588002
         4602.529       0.0562705
         4606.637      0.05665335
         4610.746      0.05703517
          4614.86       0.0574076
         4618.979      0.05778169
         4623.097      0.05814793
         4627.223      0.05851319
          4631.35      0.05887081
         4635.483      0.05921172
         4639.621      0.05955388
         4643.759      0.05988932
           4647.9       0.0602252
         4652.046       0.0605496
         4656.198      0.06086216
         4660.354      0.06117615
         4664.511      0.06149558
         4668.673       0.0618162
          4672.84      0.06213043
         4677.005      0.06244176
          4681.18      0.06275529
         4685.355      0.06307165
         4689.537      0.06338924
         4693.722      0.06370176
         4697.909      0.06401425
         4702.102      0.06432678
         4706.293      0.06463872
         4710.493      0.06495007
         4714.697      0.06524819
         4718.902      0.06554688
         4723.114      0.06585175
          4727.33      0.06615924
         4731.543      0.06645895
         4735.766      0.06674545
          4739.99      0.06703249
         4744.221      0.06733691
         4748.455      0.06764215
          4752.69      0.06794749
         4756.932      0.06825352
         4761.172      0.06855755
         4765.421       0.0688564
         4769.674        0.069156
         4773.929       0.0694562
         4778.189      0.06975734
         4782.454       0.0700587
         4786.719      0.07036025
         4790.989      0.07065892
         4795.262       0.0709463
         4799.542      0.07123451
         4803.826      0.07154419
          4808.11      0.07185699
         4812.401      0.07215897
         4816.696      0.07245233
         4820.993      0.07274955
         4825.292      0.07305862
         4829.597      0.07336852
         4833.907      0.07367305
         4838.221      0.07397773
         4842.537      0.07428497
         4846.855      0.07459439
         4851.179      0.07489954
         4855.508      0.07519202
         4859.842      0.07548513
         4864.177      0.07578313
         4868.518      0.07608216
         4872.863      0.07637938
         4877.209      0.07667585
          4881.56      0.07697169
         4885.914      0.07726584
         4890.277      0.07756142
         4894.639      0.07786403
         4899.004      0.07816733
         4903.376      0.07846656
         4907.748      0.07876465
          4912.13      0.07906161
         4916.512      0.07935634
         4920.897      0.07965244
         4925.289      0.07995227
         4929.685      0.08025277
         4934.082      0.08055364
         4938.482      0.08085512
         4942.887      0.08114547
         4947.301      0.08143052
         4951.714      0.08172464
         4956.131      0.08203348
         4960.554      0.08234155
         4964.976      0.08263871
          4969.41      0.08293703
         4973.842      0.08322977
         4978.278       0.0835221
         4982.724      0.08381046
         4987.168       0.0840959
         4991.617      0.08438616
         4996.069      0.08468451
         5000.528      0.08498854
         5004.991      0.08532962
         5009.455      0.08567107
         5013.923       0.0860131
         5018.398      0.08635584
         5022.874      0.08670761
         5027.357      0.08706506
         5031.841      0.08741399
         5036.329      0.08775055
         5040.827      0.08808903
         5045.323      0.08843191
         5049.823       0.0887754
         5054.327       0.0891263
         5058.838      0.08947833
         5063.353      0.08983826
         5067.869      0.09020113
          5072.39      0.09055331
         5076.919      0.09089623
         5081.448      0.09123187
          5085.98      0.09155219
         5090.516      0.09187597
          5095.06      0.09222494
         5099.607      0.09257448
         5104.155      0.09291209
         5108.708      0.09324902
         5113.265      0.09357671
         5117.828      0.09390115
         5122.396      0.09422832
         5126.965      0.09455773
         5131.538      0.09488557
          5136.12      0.09521023
         5140.701      0.09553789
         5145.287      0.09588268
         5149.876      0.09622794
         5154.472      0.09655119
         5159.072      0.09687409
         5163.674      0.09719706
         5168.283      0.09752055
         5172.895      0.09783537
         5177.506      0.09814476
         5182.127      0.09845403
         5186.749      0.09876253
         5191.378      0.09907042
         5196.012      0.09937596
         5200.646      0.09968197
         5205.285      0.09999123
         5209.928       0.1003007
         5214.577       0.1006118
         5219.231       0.1009231
         5223.887       0.1012292
         5228.549       0.1015345
         5233.215       0.1018365
          5237.88       0.1021366
         5242.555       0.1024345
         5247.231       0.1027299
         5251.914       0.1030178
         5256.601       0.1032944
          5261.29       0.1035672
         5265.985       0.1038304
          5270.68       0.1040977
         5275.383       0.1043933
         5280.092       0.1046884
         5284.801       0.1049471
         5289.518       0.1052059
         5294.239       0.1054725
         5298.958       0.1057397
         5303.687       0.1059945
         5308.418       0.1062454
         5313.155       0.1064971
         5317.897       0.1067492
         5322.641       0.1069991
         5327.391       0.1072475
          5332.14       0.1074861
         5336.899       0.1077135
         5341.662       0.1079443
         5346.426       0.1081817
         5351.198       0.1084102
         5355.974       0.1086119
         5360.751       0.1088191
         5365.532        0.109059
         5370.318       0.1092954
         5375.111       0.1094878
         5379.908       0.1096795
         5384.707       0.1098719
         5389.513       0.1100638
         5394.323       0.1102536
         5399.131       0.1104423
          5403.95       0.1106354
          5408.77       0.1108288
         5413.597       0.1109954
         5418.429       0.1111523
         5423.262        0.111323
         5428.099       0.1115001
          5432.94       0.1116584
         5437.792       0.1118042
         5442.643       0.1119458
         5447.497       0.1120835
         5452.359       0.1122225
         5457.225       0.1123627
         5462.092       0.1124994
         5466.964       0.1126316
          5471.84       0.1127506
         5476.724       0.1128482
         5481.612       0.1129508
         5486.501       0.1130646
         5491.398       0.1131686
         5496.293       0.1132489
         5501.198       0.1133239
         5506.108       0.1133852
         5511.019       0.1134385
         5515.938       0.1134653
          5520.86       0.1134939
         5525.785       0.1135369
         5530.713       0.1135716
         5535.646       0.1135649
         5540.587       0.1135617
         5545.532       0.1135953
         5550.478       0.1136225
         5555.432       0.1136026
         5560.387       0.1135809
         5565.347       0.1135558
         5570.313       0.1135264
         5575.282       0.1134581
         5580.258       0.1133904
         5585.238       0.1133696
          5590.22       0.1133441
         5595.206       0.1132528
         5600.197       0.1131563
         5605.198       0.1129801
         5610.197       0.1128002
         5615.201        0.112554
         5620.213       0.1123086
         5625.226       0.1121189
         5630.246       0.1119244
         5635.268       0.1116635
         5640.294       0.1114028
         5645.328       0.1111661
         5650.367        0.110925
         5655.406       0.1106442
         5660.451       0.1103648
         5665.502       0.1101152
         5670.559       0.1098561
         5675.617       0.1095322
         5680.679       0.1092206
         5685.752       0.1089979
         5690.823       0.1087683
         5695.899       0.1085078
         5700.979       0.1082377
         5706.064       0.1079318
          5711.16       0.1076142
         5716.254       0.1072624
         5721.353       0.1069106
         5726.456       0.1065621
         5731.567       0.1062006
         5736.682       0.1058124
         5741.799       0.1054194
          5746.92       0.1050187
         5752.053       0.1046363
         5757.183       0.1042837
         5762.318       0.1038999
         5767.458       0.1034784
         5772.602       0.1030576
         5777.757        0.102637
         5782.911        0.102191
         5788.068       0.1017245
         5793.237        0.101291
         5798.401       0.1008776
         5803.577       0.1003964
         5808.753      0.09988417
         5813.937      0.09941863
         5819.126      0.09896659
         5824.316       0.0984583
         5829.511      0.09793667
         5834.711      0.09747215
         5839.918      0.09701142
          5845.13      0.09645394
         5850.344      0.09589671
         5855.562      0.09539169
         5860.792       0.0948783
         5866.016      0.09433279
         5871.251       0.0937878
         5876.488      0.09325217
         5881.732      0.09269875
         5886.982       0.0921121
         5892.232      0.09154288
         5897.491      0.09099724
         5902.749      0.09043375
         5908.017       0.0898524
          5913.29      0.08926935
         5918.563      0.08868472
         5923.846       0.0880904
         5929.133      0.08749105
         5934.421      0.08691663
         5939.714      0.08634514
         5945.012      0.08568222
         5950.318      0.08501714
         5955.629      0.08444541
         5960.941      0.08385506
         5966.258      0.08318523
         5971.579      0.08254043
         5976.909      0.08195853
         5982.243      0.08132783
         5987.579        0.080631
         5992.923       0.0799832
         5998.271      0.07937622
         6003.622       0.0786548
         6008.976       0.0778785
         6014.336      0.07716035
         6019.704      0.07645486
         6025.076      0.07566451
          6030.45      0.07487603
         6035.832      0.07416726
         6041.219      0.07343359
         6046.604      0.07261836
         6052.001      0.07184649
         6057.399       0.0711512
         6062.805        0.070399
         6068.216      0.06959432
         6073.628      0.06886601
         6079.046      0.06817462
         6084.468      0.06738136
         6089.898      0.06656479
         6095.333      0.06586749
          6100.77      0.06515566
         6106.215      0.06434375
         6111.665      0.06356575
         6117.112      0.06286732
         6122.572      0.06212829
         6128.033      0.06134511
         6133.502       0.0606236
         6138.976      0.05993667
         6144.452      0.05915598
         6149.936       0.0583522
         6155.417      0.05766983
         6160.911      0.05697196
          6166.41      0.05619692
          6171.91      0.05545871
         6177.418      0.05478963
         6182.932      0.05406198
         6188.443      0.05328349
         6193.966      0.05258679
         6199.491      0.05192256
         6205.024      0.05116576
         6210.562      0.05040881
         6216.101      0.04974082
         6221.649      0.04905178
         6227.195      0.04831602
         6232.756      0.04761918
         6238.315      0.04696428
         6243.879      0.04626198
         6249.452       0.0455381
         6255.029      0.04489638
         6260.608      0.04425392
         6266.193      0.04353442
         6271.782      0.04284938
         6277.379      0.04223862
         6282.982      0.04158145
         6288.586      0.04088375
         6294.198      0.04026114
         6299.809      0.03966415
         6305.435      0.03899105
         6311.059      0.03833285
         6316.688      0.03774962
         6322.326      0.03713347
         6327.968       0.0364712
         6333.612      0.03587438
         6339.262      0.03531384
         6344.916      0.03467736
         6350.579      0.03403896
         6356.247       0.0334926
         6361.916      0.03291954
         6367.594      0.03229352
         6373.277      0.03171663
         6378.961      0.03117605
         6384.651      0.03059237
         6390.346      0.03000265
         6396.049      0.02947663
         6401.757      0.02892842
         6407.467      0.02833148
         6413.183        0.027792
         6418.906      0.02729794
         6424.631      0.02675391
         6430.365      0.02620218
         6436.104      0.02572347
         6441.845       0.0252276
         6447.594      0.02469491
         6453.345      0.02420787
         6459.101      0.02375335
         6464.866      0.02326033
         6470.632      0.02276693
         6476.407       0.0223275
         6482.184      0.02187134
         6487.969      0.02138704
         6493.756      0.02094786
         6499.548      0.02053284
         6505.349      0.02006547
         6511.154      0.01959979
         6516.962      0.01915619
         6522.778      0.01871302
         6528.596      0.01827085
         6534.419      0.01785601
         6540.251      0.01744865
         6546.088      0.01700855
         6551.927      0.01658978
         6557.771      0.01621282
         6563.624      0.01581474
         6569.478      0.01540439
         6575.341      0.01504043
         6581.206      0.01467519
          6587.08      0.01428435
         6592.955      0.01392257
         6598.839      0.01358901
         6604.729      0.01323083
         6610.616       0.0128731
         6616.516      0.01256232
         6622.421       0.0122395
         6628.328      0.01189932
         6634.244      0.01159553
         6640.165      0.01130576
         6646.087      0.01098844
         6652.015      0.01068818
         6657.948      0.01042038
         6663.891      0.01013619
         6669.838     0.009843822
         6675.787     0.009592448
         6681.745     0.009332559
         6687.701     0.009049278
          6693.67     0.008799082
         6699.644     0.008570005
          6705.62     0.008314154
         6711.604     0.008067207
         6717.594     0.007848503
         6723.586     0.007617168
         6729.583     0.007377485
         6735.585     0.007176488
         6741.597     0.006974647
         6747.613     0.006762046
         6753.632     0.006559383
          6759.66     0.006363202
         6765.692     0.006164234
         6771.723     0.005972663
         6777.767     0.005798436
         6783.813     0.005622575
         6789.867     0.005445789
         6795.927      0.00527611
         6801.988     0.005110471
         6808.055       0.0049521
         6814.127     0.004797604
         6820.209     0.004645221
         6826.296     0.004498151
         6832.385     0.004351562
         6838.482     0.004205294
         6844.586     0.004069528
         6850.687     0.003944303
         6856.801     0.003871761
         6862.917     0.003799424
         6869.042     0.003727198
         6875.173     0.003655226
         6881.305     0.003583508
         6887.446     0.003511933
         6893.586     0.003440636
         6899.738     0.003369446
         6905.896     0.003298395
         6912.056     0.003217477
         6918.225      0.00311658
         6924.399     0.003009462
         6930.572     0.002901706
         6936.757     0.002809203
         6942.944     0.002714227
         6949.141     0.002616413
         6955.343     0.002530249
         6961.546     0.002444993
          6967.76      0.00235625
         6973.971     0.002276803
         6980.195     0.002202267
         6986.424     0.002119996
         6992.656     0.002043945
         6998.897      0.00197605
         7005.143     0.001902667
         7011.392     0.001830796
         7017.645     0.001767477
         7023.904     0.001700939
         7030.173     0.001632894
         7036.448     0.001577013
         7042.724     0.001519325
         7049.009     0.001459127
         7055.292     0.001406763
         7061.589     0.001355171
         7067.892     0.001301439
         7074.196     0.001253792
          7080.51     0.001208922
         7086.829     0.001160549
          7093.15     0.001116208
         7099.477     0.001075865
         7105.809     0.001033039
         7112.151     9.924031E-4
         7118.498     9.563347E-4
         7124.848     9.183674E-4
         7131.207     8.810505E-4
         7137.571     8.487446E-4
         7143.933     8.153268E-4
         7150.309     7.814863E-4
         7156.687     7.529445E-4
         7163.074     7.234424E-4
         7169.467     6.929282E-4
         7175.862     6.670447E-4
         7182.262     6.408753E-4
         7188.668     6.133395E-4
         7195.084     5.898216E-4
         7201.506     5.670058E-4
         7207.929     5.429205E-4
         7214.362     5.216742E-4
         7220.801     5.016419E-4
         7227.237     4.804191E-4
         7233.688     4.611727E-4
         7240.144     4.434115E-4
         7246.601     4.245108E-4
         7253.069     4.070817E-4
         7259.538     3.912862E-4
         7266.017     3.750058E-4
         7272.498     3.597258E-4
         7278.989     3.460275E-4
         7285.481     3.312114E-4
         7291.979     3.170867E-4
         7298.487     3.049307E-4
         7305.001     2.921578E-4
         7311.517     2.797160E-4
         7318.038     2.688621E-4
         7324.569     2.575402E-4
         7331.103     2.463707E-4
         7337.646     2.367717E-4
          7344.19     2.267624E-4
         7350.745     2.167425E-4
         7357.301     2.083842E-4
         7363.867     1.997263E-4
         7370.436     1.909820E-4
         7377.014     1.836845E-4
         7383.593     1.759613E-4
         7390.183     1.679283E-4
         7396.775     1.614689E-4
         7403.372     1.547170E-4
         7409.979     1.476841E-4
         7416.589     1.418907E-4
         7423.208     1.359574E-4
         7429.829     1.298778E-4
          7436.46     1.246524E-4
         7443.097     1.194092E-4
         7449.736     1.141203E-4
         7456.381     1.096668E-4
         7463.036     1.050664E-4
         7469.692     1.002545E-4
         7476.359     9.631955E-5
         7483.027     9.228849E-5
         7489.702     8.808602E-5
         7496.386     8.453766E-5
         7503.077     8.099413E-5
         7509.769     7.742103E-5
         7516.471     7.440036E-5
         7523.175     7.130025E-5
          7529.89     6.808541E-5
         7536.606     6.543146E-5
         7543.328     6.265291E-5
         7550.061     5.974156E-5
         7556.794     5.734294E-5
         7563.539     5.508981E-5
          7570.29     5.296615E-5
         7577.042     5.076566E-5
           7583.8     4.864464E-5
         7590.568     4.657916E-5
         7597.339     4.444701E-5
         7604.119     4.257139E-5
         7610.906     4.085564E-5
         7617.694     3.909318E-5
         7624.489     3.753624E-5
          7631.29     3.605076E-5
           7638.1     3.441336E-5
         7644.917     3.301613E-5
         7651.736     3.168498E-5
         7658.565     3.026834E-5
         7665.396     2.904494E-5
         7672.233     2.787099E-5
         7679.081     2.668981E-5
          7685.93     2.561638E-5
          7692.79     2.452204E-5
         7699.655     2.337317E-5
         7706.523     2.254083E-5
         7713.401     2.165653E-5
         7720.276     2.071045E-5
         7727.167     1.990857E-5
         7734.063     1.909634E-5
         7740.961     1.830000E-5
          7747.87     1.763770E-5
         7754.785     1.687069E-5
         7761.697     1.612087E-5
         7768.625     1.555799E-5
         7775.554     1.491400E-5
         7782.494     1.428364E-5
         7789.439     1.371250E-5
         7796.387     1.315641E-5
         7803.345     1.261906E-5
         7810.301     1.210252E-5
         7817.271     1.161180E-5
         7824.249     1.115744E-5
         7831.227     1.072429E-5
         7838.216     1.027843E-5
         7845.212     9.898366E-6
         7852.209     9.544225E-6
         7859.213     9.196324E-6
         7866.223     8.871783E-6
         7873.244     8.494740E-6
         7880.271     8.058160E-6
         7887.299     7.731469E-6
         7894.338     7.457038E-6
         7901.375     7.194038E-6
         7908.427     6.842638E-6
         7915.485     6.555138E-6
         7922.545     6.319338E-6
         7929.616     6.141670E-6
         7936.693     5.957909E-6
         7943.772     5.717984E-6
         7950.858     5.435299E-6
          7957.95     5.194520E-6
         7965.052     5.049819E-6
         7972.161     4.911116E-6
         7979.271     4.697610E-6
         7986.393     4.540220E-6
         7993.521     4.536594E-6
         8000.646     4.714697E-6
         8007.786     5.213618E-6
         8014.929     5.232524E-6
         8022.082     4.935515E-6
         8029.242     4.391080E-6
         8036.403     4.076385E-6
         8043.576     3.732826E-6
         8050.746     3.370130E-6
         8057.931     3.313032E-6
         8065.123     3.558928E-6
         8072.316     3.685990E-6
         8079.521     3.313455E-6
         8086.731     2.937617E-6
          8093.94     2.880223E-6
         8101.164     2.992990E-6
         8108.389     2.636338E-6
         8115.626     2.574958E-6
         8122.869     2.530005E-6
         8130.114     2.387938E-6
          8137.37     2.524445E-6
         8144.628     2.033203E-6
         8151.893     1.503280E-6
         8159.168     1.854704E-6
         8166.446     1.951694E-6
         8173.734     1.928597E-6
         8181.029     1.886986E-6
         8188.326     2.230433E-6
          8195.63     1.746004E-6
         8202.939     1.456220E-6
         8210.261     1.795601E-6
         8217.588     1.738018E-6
         8224.918     2.003224E-6
         8232.259     2.149176E-6
         8239.602     1.681447E-6
          8246.95     1.912810E-6
         8254.311     1.952090E-6
         8261.673     1.795835E-6
         8269.047     1.526563E-6
         8276.427     1.462470E-6
         8283.809     1.296623E-6
         8291.197     1.098043E-6
         8298.597     1.358466E-6
         8305.999     1.232622E-6
         8313.412     8.481386E-7
         8320.827     3.498511E-7
         8328.253     4.949816E-7
         8335.687     9.925114E-7
         8343.121     1.125264E-6
         8350.563     6.922178E-7
         8358.011     1.199129E-6
         8365.471     1.083302E-6
         8372.937     9.161374E-7
         8380.409     9.932954E-7
         8387.879     6.716275E-7
         8395.365     7.823980E-7
         8402.854     1.039985E-6
         8410.353     1.237308E-6
         8417.859     9.781136E-7
         8425.367     1.158579E-6
         8432.887     1.195632E-6
         8440.408     7.622996E-7
         8447.937     9.745660E-7
         8455.477     9.271288E-7
         8463.019     6.457878E-7
         8470.571     2.167820E-7
         8478.127     4.705915E-7
         8485.693     8.921782E-7
         8493.262     9.604584E-7
         8500.842     5.352236E-7
         8508.425     4.464449E-7
         8516.019     3.520858E-7
         8523.614     2.526558E-7
         8531.221     2.129487E-7
          8538.83     5.055227E-7
         8546.446     8.492387E-7
         8554.074     8.828063E-7
         8561.704     7.676627E-7
         8569.345     1.095843E-6
         8576.993     8.027732E-7
         8584.644     6.331687E-7
         8592.301     7.116379E-7
         8599.969     1.094475E-6
          8607.64     8.689690E-7
         8615.321     5.091554E-7
         8623.006     4.101469E-7
         8630.702     7.246820E-7
         8638.405     2.528918E-7
         8646.105     2.879459E-7
         8653.821     5.360095E-7
          8661.54     7.180867E-7
         8669.271     3.095399E-7
         8677.008     1.154397E-7
         8684.747     1.099787E-7
         8692.493     2.682247E-7
         8700.251     5.543332E-7
         8708.012     9.276571E-7
         8715.783     5.923011E-7
         8723.563     3.455315E-7
         8731.343     4.208138E-7
         8739.136     1.814251E-7
         8746.926     4.477074E-7
         8754.732     6.520859E-7
         8762.546     7.219451E-7
         8770.361     6.634672E-7
         8778.188     2.445499E-7
         8786.019     3.105354E-7
         8793.859     6.006065E-7
         8801.703     8.666816E-7
         8809.554     7.579501E-7
         8817.416     3.813748E-7
         8825.286     4.172270E-7
         8833.157     4.611005E-7
         8841.041     2.915330E-7
         8848.922     6.545877E-7
         8856.819     5.540269E-7
         8864.724     5.090214E-7
         8872.631     5.068663E-7
          8880.55     4.076944E-7
         8888.476     1.481330E-7
         8896.403     2.314261E-7
         8904.338     2.012411E-7
          8912.28     1.254134E-7
         8920.234     3.192735E-7
         8928.195     1.715799E-7
         8936.159     1.165769E-7
         8944.135     2.935525E-7
         8952.117     5.269905E-7
         8960.097     3.966776E-7
         8968.094     1.075366E-7
         8976.093     2.370881E-7
         8984.104     4.008943E-7
         8992.122     4.092168E-7
         9000.143     2.395981E-7
         9008.175     1.947954E-7
         9016.205     1.660955E-7
         9024.252     1.386770E-7
         9032.306     1.394329E-7
         9040.362     2.149478E-7
         9048.431     2.475983E-7
         9056.506     3.326480E-7
         9064.579     5.051170E-7
         9072.669     5.457076E-7
         9080.761     2.674855E-7
         9088.865     5.638202E-7
         9096.978     3.393330E-7
         9105.092     3.577474E-7
         9113.218     3.956820E-7
         9121.341     1.974698E-7
         9129.481     1.153168E-7
          9137.63     4.905287E-7
          9145.78     4.293047E-7
         9153.942     2.149568E-7
         9162.112     1.772298E-7
         9170.284     5.163219E-7
         9178.464     4.487790E-7
         9186.655     4.242089E-7
         9194.849     3.746725E-7
         9203.056     2.506938E-7
         9211.264     1.323646E-7
         9219.485     5.017737E-7
         9227.708     3.384489E-7
         9235.938     2.025731E-7
         9244.182     1.872016E-7
         9252.427     2.252675E-7
         9260.685     1.869805E-7
         9268.949     3.255856E-7
         9277.217     1.909963E-7
         9285.492     9.721452E-8
         9293.779     7.955131E-8
         9302.068     1.254331E-7
          9310.37     2.351395E-7
         9318.675     3.759226E-7
         9326.991     3.992350E-7
         9335.315     2.016553E-7
         9343.637     4.861763E-8
         9351.977     1.096638E-7
         9360.317     2.176295E-7
         9368.672     8.860474E-8
         9377.033     2.752324E-7
         9385.396     2.722452E-7
         9393.768     2.258341E-7
         9402.152     2.431549E-7
         9410.538     1.422569E-7
         9418.937     1.693457E-7
         9427.338     3.662659E-7
         9435.752     3.243623E-7
         9444.173     2.310005E-7
         9452.592     1.943947E-7
         9461.028     1.521319E-7
         9469.472     2.403077E-7
         9477.918     1.721507E-7
         9486.377     1.779952E-7
         9494.838     1.630533E-7
         9503.313     1.252479E-7
         9511.788     1.208927E-7
         9520.272     1.716130E-7
          9528.77     2.043220E-7
         9537.269     3.097938E-7
          9545.78     3.128379E-7
           9554.3     2.526774E-7
         9562.821     2.068907E-7
         9571.351     2.203090E-7
         9579.894     2.946264E-7
         9588.438     1.897113E-7
         9596.995     2.327481E-7
         9605.561     2.439193E-7
         9614.128     2.765562E-7
         9622.704     3.371614E-7
         9631.286     3.215510E-7
         9639.882     2.474206E-7
         9648.485     6.463003E-8
         9657.092     1.395443E-7
         9665.711     2.175830E-7
         9674.332     1.761411E-7
         9682.961     1.242568E-7
         9691.603     1.994704E-7
         9700.252     1.729759E-7
         9708.904     1.738757E-7
         9717.569     7.494137E-8
         9726.237     2.172074E-7
         9734.912     2.806175E-7
         9743.601     2.603862E-7
         9752.291     2.525912E-7
         9760.995     1.091994E-7
         9769.701     5.065549E-8
         9778.421     8.841149E-8
         9787.147     1.537900E-7
         9795.872     2.486125E-7
         9804.614     2.164958E-7
         9813.359     1.221004E-7
         9822.118     1.362808E-7
         9830.884     1.913398E-7
         9839.652     1.292685E-7
         9848.435     1.908386E-7
         9857.219     1.166042E-7
         9866.011     1.466491E-7
         9874.816     1.091335E-7
         9883.624     1.008024E-7
         9892.444     1.980847E-7
         9901.273     1.151993E-7
         9910.104     1.040818E-7
         9918.944     7.574616E-8
         9927.791     1.193907E-7
         9936.651     2.136305E-7
         9945.521     2.024969E-7
         9954.391     1.540224E-7
         9963.275     1.478854E-7
         9972.162     1.509035E-7
         9981.057     1.307040E-7
         9989.964     1.401589E-7
          9998.88     1.339507E-7
          10007.8     1.327382E-7
         10016.72     1.639386E-7
         10025.67     1.533129E-7
          10034.6     1.424522E-7
         10043.56     1.451602E-7
         10052.52     1.295996E-7
         10061.49     1.199609E-7
         10070.47     1.285211E-7
         10079.46     1.463459E-7
         10088.45     1.598497E-7
         10097.44     1.538721E-7
         10106.46     1.429297E-7
         10115.48     1.291188E-7
          10124.5     1.142023E-7
         10133.53     1.220375E-7
         10142.58     1.411120E-7
         10151.62     1.132515E-7
         10160.68     1.202021E-7
         10169.74     1.220394E-7
         10178.81     1.145069E-7
          10187.9     1.083130E-7
         10196.99     1.074693E-7
         10206.08     1.137003E-7
         10215.19     1.351162E-7
         10224.31     1.348871E-7
         10233.43     1.156201E-7
         10242.56     1.132292E-7
         10251.69     9.917464E-8
         10260.85     9.529951E-8
           10270.     9.935339E-8
         10279.16     9.419104E-8
         10288.33     9.571500E-8
         10297.51     9.064630E-8
          10306.7     1.036114E-7
         10315.89     1.059523E-7
          10325.1     1.004373E-7
          10334.3     9.134931E-8
         10343.53     7.794559E-8
         10352.76     7.687699E-8
         10361.99     9.279044E-8
         10371.25     8.590050E-8
          10380.5     9.482270E-8
         10389.76     8.566524E-8
         10399.02     8.680560E-8
          10408.3     7.568277E-8
         10417.59     6.554068E-8
         10426.89     6.323918E-8
         10436.19     6.101660E-8
         10445.49     5.816083E-8
         10454.82     5.569961E-8
         10464.15     5.496375E-8
         10473.48     5.461585E-8
         10482.82     5.118899E-8
         10492.17     4.424090E-8
         10501.54     3.532461E-8
         10510.91     4.061227E-8
         10520.29     4.031076E-8
         10529.67     4.034020E-8
         10539.07     3.351239E-8
         10548.47     3.599979E-8
         10557.88     3.399967E-8
         10567.31     3.697737E-8
         10576.73     3.427466E-8
         10586.17     3.592340E-8
         10595.61     3.853394E-8
         10605.06     3.754820E-8
         10614.53     3.449432E-8
           10624.     3.446863E-8
         10633.48     3.633372E-8
         10642.96     3.548411E-8
         10652.45     3.693046E-8
         10661.97     3.301534E-8
         10671.48     3.365611E-8
         10680.99     3.260389E-8
         10690.53     3.609538E-8
         10700.07     3.138672E-8
         10709.61     3.142171E-8
         10719.16     3.436241E-8
         10728.72     3.556376E-8
         10738.31     3.511660E-8
         10747.88     3.031259E-8
         10757.47     2.998096E-8
         10767.08     3.077575E-8
         10776.67     3.099207E-8
         10786.29     3.055001E-8
         10795.91     2.957874E-8
         10805.54     2.836873E-8
         10815.18     2.783391E-8
         10824.83     2.750983E-8
         10834.49     2.718967E-8
         10844.17     2.724960E-8
         10853.84     2.604177E-8
         10863.52     2.380211E-8
         10873.21     2.326230E-8
         10882.91     2.273215E-8
         10892.63     2.115820E-8
         10902.35     2.144653E-8
         10912.07     2.077349E-8
         10921.81     1.929387E-8
         10931.54     1.861479E-8
         10941.31     1.830692E-8
         10951.07     1.738424E-8
         10960.83     1.552200E-8
         10970.62     1.478908E-8
         10980.39     1.484007E-8
          10990.2     1.247644E-8
           11000.     1.183356E-8
