# This is the system throughput curve for the WFCAM K filter from 
# Hewitt et al. (2006, MNRAS, 367, 454) obtained 2009-05-18. 
# 1.0mm water vapour, 1.3 airmass
# Col 1: wavelength (microns)
# Col 2: throughput
#
 1.9010 0.0001
 1.9015 0.0002
 1.9020 0.0003
 1.9025 0.0001
 1.9030 0.0000
 1.9035 0.0001
 1.9040 0.0003
 1.9045 0.0002
 1.9050 0.0001
 1.9055 0.0000
 1.9060 0.0001
 1.9065 0.0001
 1.9070 0.0000
 1.9075 0.0003
 1.9080 0.0004
 1.9085 0.0004
 1.9090 0.0001
 1.9095 0.0005
 1.9100 0.0004
 1.9105 0.0002
 1.9110 0.0003
 1.9115 0.0000
 1.9120 0.0002
 1.9125 0.0003
 1.9130 0.0003
 1.9135 0.0000
 1.9140 0.0001
 1.9145 0.0002
 1.9150 0.0003
 1.9155 0.0006
 1.9160 0.0002
 1.9165 0.0001
 1.9170 0.0003
 1.9175 0.0007
 1.9180 0.0008
 1.9185 0.0008
 1.9190 0.0007
 1.9195 0.0003
 1.9200 0.0000
 1.9205 0.0001
 1.9210 0.0000
 1.9215 0.0004
 1.9220 0.0008
 1.9225 0.0009
 1.9230 0.0009
 1.9235 0.0009
 1.9240 0.0001
 1.9245 0.0002
 1.9250 0.0009
 1.9255 0.0011
 1.9260 0.0008
 1.9265 0.0010
 1.9270 0.0002
 1.9275 0.0005
 1.9280 0.0011
 1.9285 0.0003
 1.9290 0.0008
 1.9295 0.0012
 1.9300 0.0010
 1.9305 0.0007
 1.9310 0.0004
 1.9315 0.0009
 1.9320 0.0008
 1.9325 0.0015
 1.9330 0.0010
 1.9335 0.0015
 1.9340 0.0004
 1.9345 0.0012
 1.9350 0.0018
 1.9355 0.0017
 1.9360 0.0016
 1.9365 0.0007
 1.9370 0.0017
 1.9375 0.0017
 1.9380 0.0008
 1.9385 0.0018
 1.9390 0.0009
 1.9395 0.0011
 1.9400 0.0013
 1.9405 0.0022
 1.9410 0.0013
 1.9415 0.0009
 1.9420 0.0020
 1.9425 0.0026
 1.9430 0.0024
 1.9435 0.0019
 1.9440 0.0022
 1.9445 0.0018
 1.9450 0.0015
 1.9455 0.0025
 1.9460 0.0024
 1.9465 0.0026
 1.9470 0.0023
 1.9475 0.0022
 1.9480 0.0025
 1.9485 0.0022
 1.9490 0.0028
 1.9495 0.0024
 1.9500 0.0026
 1.9505 0.0026
 1.9510 0.0025
 1.9515 0.0032
 1.9520 0.0031
 1.9525 0.0027
 1.9530 0.0027
 1.9535 0.0022
 1.9540 0.0027
 1.9545 0.0021
 1.9550 0.0026
 1.9555 0.0020
 1.9560 0.0025
 1.9565 0.0023
 1.9570 0.0028
 1.9575 0.0031
 1.9580 0.0027
 1.9585 0.0032
 1.9590 0.0025
 1.9595 0.0023
 1.9600 0.0036
 1.9605 0.0044
 1.9610 0.0033
 1.9615 0.0041
 1.9620 0.0039
 1.9625 0.0047
 1.9630 0.0042
 1.9635 0.0034
 1.9640 0.0032
 1.9645 0.0038
 1.9650 0.0053
 1.9655 0.0046
 1.9660 0.0035
 1.9665 0.0047
 1.9670 0.0061
 1.9675 0.0052
 1.9680 0.0040
 1.9685 0.0061
 1.9690 0.0065
 1.9695 0.0053
 1.9700 0.0060
 1.9705 0.0073
 1.9710 0.0059
 1.9715 0.0053
 1.9720 0.0072
 1.9725 0.0071
 1.9730 0.0070
 1.9735 0.0083
 1.9740 0.0073
 1.9745 0.0077
 1.9750 0.0090
 1.9755 0.0086
 1.9760 0.0084
 1.9765 0.0096
 1.9770 0.0094
 1.9775 0.0096
 1.9780 0.0100
 1.9785 0.0100
 1.9790 0.0106
 1.9795 0.0102
 1.9800 0.0083
 1.9805 0.0092
 1.9810 0.0114
 1.9815 0.0118
 1.9820 0.0120
 1.9825 0.0122
 1.9830 0.0118
 1.9835 0.0128
 1.9840 0.0131
 1.9845 0.0133
 1.9850 0.0133
 1.9855 0.0136
 1.9860 0.0142
 1.9865 0.0144
 1.9870 0.0111
 1.9875 0.0149
 1.9880 0.0154
 1.9885 0.0158
 1.9890 0.0162
 1.9895 0.0165
 1.9900 0.0151
 1.9905 0.0163
 1.9910 0.0175
 1.9915 0.0182
 1.9920 0.0185
 1.9925 0.0189
 1.9930 0.0194
 1.9935 0.0198
 1.9940 0.0193
 1.9945 0.0203
 1.9950 0.0211
 1.9955 0.0206
 1.9960 0.0212
 1.9965 0.0209
 1.9970 0.0203
 1.9975 0.0202
 1.9980 0.0181
 1.9985 0.0186
 1.9990 0.0171
 1.9995 0.0171
 2.0000 0.0182
 2.0005 0.0164
 2.0010 0.0139
 2.0015 0.0118
 2.0020 0.0117
 2.0025 0.0106
 2.0030 0.0085
 2.0035 0.0103
 2.0040 0.0102
 2.0045 0.0095
 2.0050 0.0116
 2.0055 0.0129
 2.0060 0.0171
 2.0065 0.0208
 2.0070 0.0221
 2.0075 0.0197
 2.0080 0.0179
 2.0085 0.0259
 2.0090 0.0365
 2.0095 0.0242
 2.0100 0.0261
 2.0105 0.0322
 2.0110 0.0230
 2.0115 0.0178
 2.0120 0.0279
 2.0125 0.0331
 2.0130 0.0229
 2.0135 0.0197
 2.0140 0.0373
 2.0145 0.0325
 2.0150 0.0191
 2.0155 0.0427
 2.0160 0.0386
 2.0165 0.0246
 2.0170 0.0470
 2.0175 0.0406
 2.0180 0.0321
 2.0185 0.0583
 2.0190 0.0402
 2.0195 0.0562
 2.0200 0.0630
 2.0205 0.0468
 2.0210 0.0741
 2.0215 0.0590
 2.0220 0.0687
 2.0225 0.0843
 2.0230 0.0668
 2.0235 0.0890
 2.0240 0.0739
 2.0245 0.0922
 2.0250 0.0918
 2.0255 0.0963
 2.0260 0.1022
 2.0265 0.0989
 2.0270 0.1098
 2.0275 0.1040
 2.0280 0.1139
 2.0285 0.1091
 2.0290 0.1215
 2.0295 0.1187
 2.0300 0.1277
 2.0305 0.1255
 2.0310 0.1310
 2.0315 0.1330
 2.0320 0.1360
 2.0325 0.1376
 2.0330 0.1393
 2.0335 0.1411
 2.0340 0.1447
 2.0345 0.1468
 2.0350 0.1492
 2.0355 0.1512
 2.0360 0.1529
 2.0365 0.1549
 2.0370 0.1570
 2.0375 0.1588
 2.0380 0.1610
 2.0385 0.1623
 2.0390 0.1645
 2.0395 0.1648
 2.0400 0.1622
 2.0405 0.1624
 2.0410 0.1650
 2.0415 0.1660
 2.0420 0.1684
 2.0425 0.1738
 2.0430 0.1761
 2.0435 0.1782
 2.0440 0.1749
 2.0445 0.1764
 2.0450 0.1802
 2.0455 0.1825
 2.0460 0.1827
 2.0465 0.1808
 2.0470 0.1799
 2.0475 0.1767
 2.0480 0.1723
 2.0485 0.1731
 2.0490 0.1707
 2.0495 0.1575
 2.0500 0.1562
 2.0505 0.1521
 2.0510 0.1352
 2.0515 0.1353
 2.0520 0.1382
 2.0525 0.1382
 2.0530 0.1579
 2.0535 0.1636
 2.0540 0.1547
 2.0545 0.1351
 2.0550 0.1201
 2.0555 0.1168
 2.0560 0.1491
 2.0565 0.1622
 2.0570 0.1606
 2.0575 0.1303
 2.0580 0.1300
 2.0585 0.1684
 2.0590 0.1830
 2.0595 0.1728
 2.0600 0.1711
 2.0605 0.1994
 2.0610 0.1602
 2.0615 0.1659
 2.0620 0.1884
 2.0625 0.1627
 2.0630 0.1222
 2.0635 0.1682
 2.0640 0.1814
 2.0645 0.1312
 2.0650 0.1457
 2.0655 0.1867
 2.0660 0.1551
 2.0665 0.1363
 2.0670 0.1863
 2.0675 0.1747
 2.0680 0.1387
 2.0685 0.1887
 2.0690 0.1827
 2.0695 0.1475
 2.0700 0.1940
 2.0705 0.1830
 2.0710 0.1591
 2.0715 0.1979
 2.0720 0.1758
 2.0725 0.1814
 2.0730 0.2038
 2.0735 0.1756
 2.0740 0.1964
 2.0745 0.1962
 2.0750 0.1761
 2.0755 0.2044
 2.0760 0.1958
 2.0765 0.2025
 2.0770 0.2046
 2.0775 0.1967
 2.0780 0.2082
 2.0785 0.2053
 2.0790 0.2111
 2.0795 0.2134
 2.0800 0.2090
 2.0805 0.2141
 2.0810 0.2106
 2.0815 0.2119
 2.0820 0.2096
 2.0825 0.2100
 2.0830 0.2102
 2.0835 0.2096
 2.0840 0.2093
 2.0845 0.2107
 2.0850 0.2089
 2.0855 0.2090
 2.0860 0.2130
 2.0865 0.2144
 2.0870 0.2106
 2.0875 0.2155
 2.0880 0.2161
 2.0885 0.2114
 2.0890 0.2172
 2.0895 0.2162
 2.0900 0.2113
 2.0905 0.2186
 2.0910 0.2162
 2.0915 0.2167
 2.0920 0.2194
 2.0925 0.2160
 2.0930 0.2196
 2.0935 0.2190
 2.0940 0.2151
 2.0945 0.2205
 2.0950 0.2195
 2.0955 0.2206
 2.0960 0.2205
 2.0965 0.2210
 2.0970 0.2214
 2.0975 0.2214
 2.0980 0.2213
 2.0985 0.2184
 2.0990 0.2191
 2.0995 0.2224
 2.1000 0.2219
 2.1005 0.2195
 2.1010 0.2216
 2.1015 0.2198
 2.1020 0.2211
 2.1025 0.2220
 2.1030 0.2221
 2.1035 0.2231
 2.1040 0.2232
 2.1045 0.2227
 2.1050 0.2221
 2.1055 0.2229
 2.1060 0.2231
 2.1065 0.2227
 2.1070 0.2228
 2.1075 0.2222
 2.1080 0.2226
 2.1085 0.2227
 2.1090 0.2219
 2.1095 0.2220
 2.1100 0.2219
 2.1105 0.2223
 2.1110 0.2220
 2.1115 0.2231
 2.1120 0.2211
 2.1125 0.2216
 2.1130 0.2242
 2.1135 0.2240
 2.1140 0.2233
 2.1145 0.2245
 2.1150 0.2239
 2.1155 0.2235
 2.1160 0.2241
 2.1165 0.2236
 2.1170 0.2237
 2.1175 0.2243
 2.1180 0.2239
 2.1185 0.2173
 2.1190 0.2242
 2.1195 0.2238
 2.1200 0.2232
 2.1205 0.2236
 2.1210 0.2244
 2.1215 0.2242
 2.1220 0.2247
 2.1225 0.2248
 2.1230 0.2249
 2.1235 0.2250
 2.1240 0.2250
 2.1245 0.2211
 2.1250 0.2249
 2.1255 0.2255
 2.1260 0.2257
 2.1265 0.2258
 2.1270 0.2259
 2.1275 0.2244
 2.1280 0.2231
 2.1285 0.2261
 2.1290 0.2261
 2.1295 0.2262
 2.1300 0.2263
 2.1305 0.2264
 2.1310 0.2266
 2.1315 0.2266
 2.1320 0.2267
 2.1325 0.2267
 2.1330 0.2268
 2.1335 0.2269
 2.1340 0.2270
 2.1345 0.2271
 2.1350 0.2271
 2.1355 0.2271
 2.1360 0.2258
 2.1365 0.2273
 2.1370 0.2274
 2.1375 0.2275
 2.1380 0.2276
 2.1385 0.2276
 2.1390 0.2276
 2.1395 0.2277
 2.1400 0.2278
 2.1405 0.2279
 2.1410 0.2279
 2.1415 0.2280
 2.1420 0.2281
 2.1425 0.2281
 2.1430 0.2274
 2.1435 0.2280
 2.1440 0.2283
 2.1445 0.2282
 2.1450 0.2284
 2.1455 0.2285
 2.1460 0.2284
 2.1465 0.2285
 2.1470 0.2284
 2.1475 0.2281
 2.1480 0.2280
 2.1485 0.2284
 2.1490 0.2274
 2.1495 0.2277
 2.1500 0.2274
 2.1505 0.2282
 2.1510 0.2279
 2.1515 0.2248
 2.1520 0.2268
 2.1525 0.2271
 2.1530 0.2260
 2.1535 0.2275
 2.1540 0.2283
 2.1545 0.2284
 2.1550 0.2274
 2.1555 0.2274
 2.1560 0.2292
 2.1565 0.2285
 2.1570 0.2290
 2.1575 0.2287
 2.1580 0.2289
 2.1585 0.2291
 2.1590 0.2264
 2.1595 0.2289
 2.1600 0.2276
 2.1605 0.2292
 2.1610 0.2239
 2.1615 0.2267
 2.1620 0.2290
 2.1625 0.2279
 2.1630 0.2287
 2.1635 0.2160
 2.1640 0.2288
 2.1645 0.2292
 2.1650 0.2287
 2.1655 0.2286
 2.1660 0.2288
 2.1665 0.2281
 2.1670 0.2242
 2.1675 0.2285
 2.1680 0.2281
 2.1685 0.2253
 2.1690 0.2278
 2.1695 0.2290
 2.1700 0.2290
 2.1705 0.2281
 2.1710 0.2291
 2.1715 0.2291
 2.1720 0.2290
 2.1725 0.2213
 2.1730 0.2259
 2.1735 0.2289
 2.1740 0.2282
 2.1745 0.2248
 2.1750 0.2277
 2.1755 0.2283
 2.1760 0.2277
 2.1765 0.2270
 2.1770 0.2288
 2.1775 0.2288
 2.1780 0.2279
 2.1785 0.2162
 2.1790 0.2278
 2.1795 0.2258
 2.1800 0.2285
 2.1805 0.2285
 2.1810 0.2285
 2.1815 0.2285
 2.1820 0.2285
 2.1825 0.2281
 2.1830 0.2268
 2.1835 0.2199
 2.1840 0.2216
 2.1845 0.2264
 2.1850 0.2171
 2.1855 0.2275
 2.1860 0.2281
 2.1865 0.2281
 2.1870 0.2264
 2.1875 0.2273
 2.1880 0.2265
 2.1885 0.2272
 2.1890 0.2280
 2.1895 0.2251
 2.1900 0.2277
 2.1905 0.2238
 2.1910 0.2278
 2.1915 0.2279
 2.1920 0.2279
 2.1925 0.2278
 2.1930 0.2278
 2.1935 0.2278
 2.1940 0.2278
 2.1945 0.2249
 2.1950 0.2203
 2.1955 0.2276
 2.1960 0.2277
 2.1965 0.2268
 2.1970 0.2276
 2.1975 0.2269
 2.1980 0.2258
 2.1985 0.2209
 2.1990 0.2235
 2.1995 0.2155
 2.2000 0.2067
 2.2005 0.2025
 2.2010 0.2249
 2.2015 0.2229
 2.2020 0.2208
 2.2025 0.2206
 2.2030 0.2231
 2.2035 0.2262
 2.2040 0.2250
 2.2045 0.2238
 2.2050 0.2169
 2.2055 0.2256
 2.2060 0.2264
 2.2065 0.2276
 2.2070 0.2276
 2.2075 0.2269
 2.2080 0.2281
 2.2085 0.2284
 2.2090 0.2285
 2.2095 0.2285
 2.2100 0.2286
 2.2105 0.2279
 2.2110 0.2266
 2.2115 0.2282
 2.2120 0.2289
 2.2125 0.2290
 2.2130 0.2291
 2.2135 0.2292
 2.2140 0.2289
 2.2145 0.2290
 2.2150 0.2278
 2.2155 0.2294
 2.2160 0.2242
 2.2165 0.2182
 2.2170 0.2289
 2.2175 0.2296
 2.2180 0.2292
 2.2185 0.2290
 2.2190 0.2301
 2.2195 0.2303
 2.2200 0.2301
 2.2205 0.2290
 2.2210 0.2297
 2.2215 0.2171
 2.2220 0.2252
 2.2225 0.2305
 2.2230 0.2305
 2.2235 0.2307
 2.2240 0.2299
 2.2245 0.2307
 2.2250 0.2308
 2.2255 0.2310
 2.2260 0.2302
 2.2265 0.2246
 2.2270 0.2267
 2.2275 0.2301
 2.2280 0.2313
 2.2285 0.2315
 2.2290 0.2318
 2.2295 0.2325
 2.2300 0.2328
 2.2305 0.2322
 2.2310 0.2316
 2.2315 0.2233
 2.2320 0.2313
 2.2325 0.2214
 2.2330 0.2316
 2.2335 0.2294
 2.2340 0.2331
 2.2345 0.2327
 2.2350 0.2332
 2.2355 0.2341
 2.2360 0.2310
 2.2365 0.2270
 2.2370 0.2334
 2.2375 0.2278
 2.2380 0.2283
 2.2385 0.2352
 2.2390 0.2358
 2.2395 0.2348
 2.2400 0.2355
 2.2405 0.2308
 2.2410 0.2339
 2.2415 0.2266
 2.2420 0.2369
 2.2425 0.2342
 2.2430 0.2338
 2.2435 0.2346
 2.2440 0.2261
 2.2445 0.2347
 2.2450 0.2376
 2.2455 0.2373
 2.2460 0.2283
 2.2465 0.2318
 2.2470 0.2262
 2.2475 0.2310
 2.2480 0.2375
 2.2485 0.2383
 2.2490 0.2367
 2.2495 0.2362
 2.2500 0.2360
 2.2505 0.2310
 2.2510 0.2344
 2.2515 0.2374
 2.2520 0.2375
 2.2525 0.2339
 2.2530 0.2345
 2.2535 0.2326
 2.2540 0.2226
 2.2545 0.2342
 2.2550 0.2373
 2.2555 0.2298
 2.2560 0.2273
 2.2565 0.2319
 2.2570 0.2219
 2.2575 0.2354
 2.2580 0.2339
 2.2585 0.2299
 2.2590 0.2378
 2.2595 0.2369
 2.2600 0.2318
 2.2605 0.2353
 2.2610 0.2151
 2.2615 0.2268
 2.2620 0.2227
 2.2625 0.2220
 2.2630 0.2389
 2.2635 0.2277
 2.2640 0.2324
 2.2645 0.2293
 2.2650 0.2249
 2.2655 0.2369
 2.2660 0.2373
 2.2665 0.2373
 2.2670 0.2348
 2.2675 0.2299
 2.2680 0.2285
 2.2685 0.2134
 2.2690 0.2212
 2.2695 0.2343
 2.2700 0.2339
 2.2705 0.2148
 2.2710 0.2349
 2.2715 0.2285
 2.2720 0.2298
 2.2725 0.2111
 2.2730 0.2335
 2.2735 0.2283
 2.2740 0.2343
 2.2745 0.2325
 2.2750 0.2263
 2.2755 0.1951
 2.2760 0.2072
 2.2765 0.2148
 2.2770 0.2221
 2.2775 0.2277
 2.2780 0.2276
 2.2785 0.2297
 2.2790 0.2302
 2.2795 0.2307
 2.2800 0.2302
 2.2805 0.2185
 2.2810 0.2126
 2.2815 0.2247
 2.2820 0.2267
 2.2825 0.2201
 2.2830 0.1837
 2.2835 0.2267
 2.2840 0.1929
 2.2845 0.2253
 2.2850 0.2200
 2.2855 0.2066
 2.2860 0.2251
 2.2865 0.2220
 2.2870 0.2214
 2.2875 0.2207
 2.2880 0.2224
 2.2885 0.2205
 2.2890 0.2212
 2.2895 0.1939
 2.2900 0.1853
 2.2905 0.2172
 2.2910 0.2130
 2.2915 0.2169
 2.2920 0.2183
 2.2925 0.1975
 2.2930 0.2179
 2.2935 0.2143
 2.2940 0.2050
 2.2945 0.2145
 2.2950 0.1955
 2.2955 0.2077
 2.2960 0.2014
 2.2965 0.2112
 2.2970 0.2148
 2.2975 0.2159
 2.2980 0.2077
 2.2985 0.1854
 2.2990 0.2005
 2.2995 0.1991
 2.3000 0.1964
 2.3005 0.1969
 2.3010 0.2005
 2.3015 0.2118
 2.3020 0.2068
 2.3025 0.2052
 2.3030 0.2088
 2.3035 0.1940
 2.3040 0.1984
 2.3045 0.1835
 2.3050 0.2021
 2.3055 0.1962
 2.3060 0.2025
 2.3065 0.1998
 2.3070 0.2068
 2.3075 0.1745
 2.3080 0.2063
 2.3085 0.2089
 2.3090 0.2043
 2.3095 0.2032
 2.3100 0.2052
 2.3105 0.2112
 2.3110 0.2115
 2.3115 0.2111
 2.3120 0.2057
 2.3125 0.2102
 2.3130 0.2114
 2.3135 0.2115
 2.3140 0.2115
 2.3145 0.2115
 2.3150 0.2109
 2.3155 0.2106
 2.3160 0.1933
 2.3165 0.1846
 2.3170 0.1463
 2.3175 0.1781
 2.3180 0.1760
 2.3185 0.1806
 2.3190 0.1999
 2.3195 0.1956
 2.3200 0.2003
 2.3205 0.2045
 2.3210 0.2025
 2.3215 0.2062
 2.3220 0.1967
 2.3225 0.2012
 2.3230 0.2059
 2.3235 0.2111
 2.3240 0.2064
 2.3245 0.2134
 2.3250 0.2124
 2.3255 0.1953
 2.3260 0.2146
 2.3265 0.2052
 2.3270 0.2151
 2.3275 0.2160
 2.3280 0.2170
 2.3285 0.1772
 2.3290 0.2106
 2.3295 0.2109
 2.3300 0.2184
 2.3305 0.2185
 2.3310 0.2096
 2.3315 0.2103
 2.3320 0.2083
 2.3325 0.2142
 2.3330 0.2170
 2.3335 0.2188
 2.3340 0.2071
 2.3345 0.2149
 2.3350 0.2072
 2.3355 0.2201
 2.3360 0.2047
 2.3365 0.2203
 2.3370 0.2223
 2.3375 0.2207
 2.3380 0.2165
 2.3385 0.2079
 2.3390 0.2171
 2.3395 0.2138
 2.3400 0.1883
 2.3405 0.2048
 2.3410 0.2068
 2.3415 0.2102
 2.3420 0.2147
 2.3425 0.2194
 2.3430 0.2226
 2.3435 0.2141
 2.3440 0.2223
 2.3445 0.2208
 2.3450 0.2106
 2.3455 0.2140
 2.3460 0.2193
 2.3465 0.2115
 2.3470 0.2172
 2.3475 0.2053
 2.3480 0.1979
 2.3485 0.2066
 2.3490 0.2216
 2.3495 0.2185
 2.3500 0.2184
 2.3505 0.1936
 2.3510 0.1808
 2.3515 0.2162
 2.3520 0.2107
 2.3525 0.1866
 2.3530 0.2207
 2.3535 0.1892
 2.3540 0.2247
 2.3545 0.2168
 2.3550 0.2139
 2.3555 0.2188
 2.3560 0.1652
 2.3565 0.2169
 2.3570 0.2168
 2.3575 0.2151
 2.3580 0.2090
 2.3585 0.1818
 2.3590 0.1768
 2.3595 0.2163
 2.3600 0.2144
 2.3605 0.2128
 2.3610 0.2115
 2.3615 0.1829
 2.3620 0.2024
 2.3625 0.2064
 2.3630 0.2049
 2.3635 0.2020
 2.3640 0.1818
 2.3645 0.1801
 2.3650 0.1962
 2.3655 0.1952
 2.3660 0.1899
 2.3665 0.1875
 2.3670 0.1855
 2.3675 0.1522
 2.3680 0.1788
 2.3685 0.1771
 2.3690 0.1637
 2.3695 0.1767
 2.3700 0.1516
 2.3705 0.0935
 2.3710 0.1262
 2.3715 0.1171
 2.3720 0.1441
 2.3725 0.1421
 2.3730 0.1493
 2.3735 0.1503
 2.3740 0.1551
 2.3745 0.1512
 2.3750 0.1457
 2.3755 0.1469
 2.3760 0.1445
 2.3765 0.1302
 2.3770 0.1256
 2.3775 0.1360
 2.3780 0.1261
 2.3785 0.1296
 2.3790 0.1340
 2.3795 0.1306
 2.3800 0.1184
 2.3805 0.1140
 2.3810 0.1248
 2.3815 0.1237
 2.3820 0.1221
 2.3825 0.1183
 2.3830 0.1018
 2.3835 0.0979
 2.3840 0.0779
 2.3845 0.1033
 2.3850 0.1088
 2.3855 0.1062
 2.3860 0.0845
 2.3865 0.0922
 2.3870 0.1002
 2.3875 0.0901
 2.3880 0.0823
 2.3885 0.0939
 2.3890 0.0938
 2.3895 0.0903
 2.3900 0.0822
 2.3905 0.0876
 2.3910 0.0798
 2.3915 0.0504
 2.3920 0.0823
 2.3925 0.0802
 2.3930 0.0778
 2.3935 0.0750
 2.3940 0.0753
 2.3945 0.0710
 2.3950 0.0699
 2.3955 0.0675
 2.3960 0.0693
 2.3965 0.0596
 2.3970 0.0599
 2.3975 0.0619
 2.3980 0.0620
 2.3985 0.0620
 2.3990 0.0592
 2.3995 0.0580
 2.4000 0.0577
 2.4005 0.0495
 2.4010 0.0557
 2.4015 0.0547
 2.4020 0.0523
 2.4025 0.0518
 2.4030 0.0504
 2.4035 0.0495
 2.4040 0.0428
 2.4045 0.0402
 2.4050 0.0462
 2.4055 0.0435
 2.4060 0.0423
 2.4065 0.0428
 2.4070 0.0320
 2.4075 0.0373
 2.4080 0.0385
 2.4085 0.0393
 2.4090 0.0374
 2.4095 0.0360
 2.4100 0.0285
 2.4105 0.0351
 2.4110 0.0347
 2.4115 0.0326
 2.4120 0.0313
 2.4125 0.0318
 2.4130 0.0313
 2.4135 0.0300
 2.4140 0.0280
 2.4145 0.0241
 2.4150 0.0280
 2.4155 0.0263
 2.4160 0.0146
 2.4165 0.0237
 2.4170 0.0251
 2.4175 0.0242
 2.4180 0.0236
 2.4185 0.0136
 2.4190 0.0152
 2.4195 0.0161
 2.4200 0.0211
 2.4205 0.0209
 2.4210 0.0203
 2.4215 0.0198
 2.4220 0.0180
 2.4225 0.0186
 2.4230 0.0181
 2.4235 0.0177
 2.4240 0.0135
 2.4245 0.0164
 2.4250 0.0157
 2.4255 0.0156
 2.4260 0.0151
 2.4265 0.0117
 2.4270 0.0145
 2.4275 0.0140
 2.4280 0.0137
 2.4285 0.0135
 2.4290 0.0130
 2.4295 0.0126
 2.4300 0.0122
 2.4305 0.0120
 2.4310 0.0116
 2.4315 0.0113
 2.4320 0.0110
 2.4325 0.0106
 2.4330 0.0099
 2.4335 0.0081
 2.4340 0.0097
 2.4345 0.0091
 2.4350 0.0074
 2.4355 0.0026
 2.4360 0.0057
 2.4365 0.0053
 2.4370 0.0079
 2.4375 0.0078
 2.4380 0.0077
 2.4385 0.0075
 2.4390 0.0073
 2.4395 0.0071
 2.4400 0.0069
 2.4405 0.0067
 2.4410 0.0065
 2.4415 0.0063
 2.4420 0.0062
 2.4425 0.0059
 2.4430 0.0052
 2.4435 0.0056
 2.4440 0.0054
 2.4445 0.0053
 2.4450 0.0051
 2.4455 0.0048
 2.4460 0.0019
 2.4465 0.0041
 2.4470 0.0040
 2.4475 0.0036
 2.4480 0.0033
 2.4485 0.0042
 2.4490 0.0041
 2.4495 0.0039
 2.4500 0.0029
 2.4505 0.0030
 2.4510 0.0028
 2.4515 0.0018
 2.4520 0.0032
 2.4525 0.0033
 2.4530 0.0033
 2.4535 0.0030
 2.4540 0.0028
 2.4545 0.0021
 2.4550 0.0026
 2.4555 0.0028
 2.4560 0.0028
 2.4565 0.0027
 2.4570 0.0026
 2.4575 0.0025
 2.4580 0.0025
 2.4585 0.0024
 2.4590 0.0023
 2.4595 0.0022
 2.4600 0.0022
 2.4605 0.0022
 2.4610 0.0021
 2.4615 0.0020
 2.4620 0.0019
 2.4625 0.0012
 2.4630 0.0011
 2.4635 0.0018
 2.4640 0.0018
 2.4645 0.0015
 2.4650 0.0017
 2.4655 0.0017
 2.4660 0.0016
 2.4665 0.0016
 2.4670 0.0015
 2.4675 0.0014
 2.4680 0.0012
 2.4685 0.0014
 2.4690 0.0014
 2.4695 0.0013
 2.4700 0.0013
 2.4705 0.0013
 2.4710 0.0012
 2.4715 0.0011
 2.4720 0.0005
 2.4725 0.0004
 2.4730 0.0004
 2.4735 0.0010
 2.4740 0.0011
 2.4745 0.0010
 2.4750 0.0010
 2.4755 0.0010
 2.4760 0.0010
 2.4765 0.0010
 2.4770 0.0009
 2.4775 0.0008
 2.4780 0.0009
 2.4785 0.0008
 2.4790 0.0008
 2.4795 0.0008
 2.4800 0.0007
 2.4805 0.0004
 2.4810 0.0007
 2.4815 0.0003
 2.4820 0.0007
 2.4825 0.0007
 2.4830 0.0007
 2.4835 0.0006
 2.4840 0.0003
 2.4845 0.0003
 2.4850 0.0006
 2.4855 0.0006
 2.4860 0.0006
 2.4865 0.0006
 2.4870 0.0004
 2.4875 0.0004
 2.4880 0.0001
 2.4885 0.0003
 2.4890 0.0005
 2.4895 0.0004
 2.4900 0.0005
 2.4905 0.0004
 2.4910 0.0004
 2.4915 0.0004
 2.4920 0.0002
 2.4925 0.0004
 2.4930 0.0004
 2.4935 0.0004
 2.4940 0.0004
 2.4945 0.0001
 2.4950 0.0002
 2.4955 0.0003
 2.4960 0.0004
 2.4965 0.0003
 2.4970 0.0004
 2.4975 0.0004
 2.4980 0.0003
 2.4985 0.0004
 2.4990 0.0003
 2.4995 0.0003
