#  Table wf2f606wsys.tab  Mon 12:21:48 02-Jun-97
#
#      WAVELENGTH      THROUGHPUT
#       angstroms                
#
            1850.     8.217029E-7
         1851.651     8.679786E-7
         1853.301     9.146246E-7
         1854.956     9.617783E-7
         1856.611     1.009288E-6
         1858.267     1.057223E-6
         1859.925     1.105613E-6
         1861.584     9.896183E-7
         1863.246     8.645964E-7
         1864.909     7.383407E-7
         1866.572     6.109395E-7
         1868.237     4.822939E-7
         1869.904     3.523311E-7
         1871.573     2.966142E-7
         1873.242     2.450007E-7
         1874.913     1.928864E-7
         1876.585     1.402650E-7
          1878.26     8.709533E-8
         1879.937     3.340437E-8
         1881.613     3.144054E-8
         1883.292     3.151741E-8
         1884.973     3.159414E-8
         1886.654     3.167065E-8
         1888.338     3.174704E-8
         1890.023     3.247573E-8
         1891.709     8.066570E-8
         1893.396     1.292601E-7
         1895.086     1.782849E-7
         1896.775     2.276526E-7
         1898.469     2.775179E-7
         1900.163     3.321283E-7
         1901.857     4.281263E-7
         1903.555     5.250448E-7
         1905.254     6.227688E-7
         1906.953     7.212297E-7
         1908.655     8.205571E-7
         1910.357     8.824037E-7
         1912.061     8.000920E-7
         1913.768     7.170182E-7
         1915.476     6.332215E-7
         1917.184     5.487539E-7
         1918.894     4.635596E-7
         1920.606     3.999802E-7
          1922.32     3.768123E-7
         1924.035     3.534392E-7
         1925.752     3.298721E-7
          1927.47     3.060853E-7
         1929.189     2.821035E-7
          1930.91     2.865866E-7
         1932.634     3.167742E-7
         1934.358     3.472073E-7
         1936.084     3.778670E-7
         1937.811     4.087776E-7
          1939.54     4.399555E-7
          1941.27     4.599420E-7
         1943.003     4.759381E-7
         1944.737     4.920568E-7
          1946.47     5.082773E-7
         1948.207     5.246404E-7
         1949.947     5.411362E-7
         1951.685     5.259556E-7
         1953.427     5.096102E-7
         1955.171     4.931142E-7
         1956.913     4.764866E-7
          1958.66     4.596866E-7
         1960.408     4.395017E-7
         1962.157     4.085001E-7
         1963.908     3.772068E-7
         1965.658     3.456805E-7
         1967.413     3.138432E-7
         1969.169     2.817293E-7
         1970.925     2.734380E-7
         1972.684     2.868145E-7
         1974.444     3.002869E-7
         1976.205     3.138639E-7
         1977.969     3.275619E-7
         1979.734     3.413489E-7
           1981.5     3.525779E-7
         1983.268     3.634229E-7
         1985.037     3.743422E-7
         1986.809     3.853484E-7
         1988.581     3.964286E-7
         1990.355     3.959061E-7
         1992.131     3.485057E-7
         1993.908     3.007044E-7
         1995.688     2.524412E-7
         1997.467     2.038644E-7
          1999.25     1.548234E-7
         2001.034     1.295682E-7
         2002.818     1.217295E-7
         2004.606     1.137965E-7
         2006.396     1.057878E-7
         2008.184     9.770922E-8
         2009.976     8.953991E-8
         2011.769     9.614183E-8
         2013.565     1.030078E-7
         2015.362     1.099370E-7
         2017.158     1.169207E-7
         2018.958     1.239763E-7
          2020.76     1.256931E-7
         2022.563     1.199880E-7
         2024.368     1.142211E-7
         2026.173     1.084001E-7
         2027.982     1.025167E-7
         2029.791     9.657835E-8
         2031.602     1.057945E-7
         2033.414     1.170866E-7
         2035.228     1.284812E-7
         2037.044     1.399858E-7
         2038.861     1.515869E-7
         2040.681     1.625415E-7
         2042.502     1.723209E-7
         2044.324     1.821807E-7
         2046.147     1.921258E-7
         2047.974     2.021639E-7
           2049.8     2.122827E-7
          2051.63     2.123071E-7
         2053.461     2.110712E-7
         2055.291     2.098195E-7
         2057.125     2.085493E-7
         2058.961     2.072619E-7
         2060.798     2.009826E-7
         2062.637     1.881243E-7
         2064.477     1.751542E-7
         2066.318     1.620649E-7
         2068.164     1.488384E-7
         2070.007     1.355200E-7
         2071.855     1.235003E-7
         2073.704     1.113733E-7
         2075.553     9.914491E-8
         2077.405     8.680836E-8
         2079.259     7.435170E-8
         2081.113     6.859216E-8
         2082.971     6.732783E-8
         2084.829     6.605190E-8
         2086.688     6.476363E-8
          2088.55     6.346199E-8
         2090.414     6.206481E-8
         2092.279     6.036386E-8
         2094.145     5.864783E-8
         2096.014     5.691484E-8
         2097.885     5.516641E-8
         2099.756     5.340338E-8
          2101.63     6.324212E-8
         2103.503     7.489364E-8
         2105.381     8.664994E-8
          2107.26     9.850089E-8
         2109.139     1.104375E-7
         2111.022     1.186275E-7
         2112.906     1.236256E-7
         2114.789     1.286537E-7
         2116.677     1.337251E-7
         2118.564     1.388301E-7
         2120.455     1.399626E-7
         2122.348     1.283966E-7
         2124.241     1.167509E-7
         2126.135     1.050146E-7
         2128.033     9.318265E-8
         2129.932     8.125935E-8
         2131.832     7.197060E-8
         2133.734     6.271362E-8
         2135.637     5.339069E-8
         2137.544     4.398828E-8
          2139.45     3.453833E-8
         2141.359     3.244881E-8
          2143.27     3.336164E-8
         2145.182     3.428021E-8
         2147.096     3.520550E-8
         2149.011     3.613644E-8
         2150.929     4.061707E-8
         2152.848     4.890805E-8
         2154.768     5.725629E-8
         2156.692     6.567278E-8
         2158.615     7.413099E-8
         2160.541     7.845642E-8
         2162.469     7.201345E-8
         2164.397     6.553544E-8
          2166.33     5.900165E-8
         2168.263     5.242752E-8
         2170.196     4.607755E-8
         2172.133     4.198139E-8
          2174.07     3.786291E-8
         2176.011     3.371578E-8
         2177.953     2.954300E-8
         2179.895     2.534765E-8
          2181.84     2.302934E-8
         2183.787     2.080506E-8
         2185.735     1.856921E-8
         2187.686     1.631951E-8
         2189.637     1.405844E-8
          2191.59     1.339044E-8
         2193.546     1.308677E-8
         2195.503     1.278150E-8
         2197.462     1.247473E-8
         2199.423     1.216609E-8
         2201.385     1.690293E-8
         2203.348     2.383643E-8
         2205.315     3.088521E-8
         2207.283     3.804469E-8
         2209.252     4.531085E-8
         2211.222     5.783562E-8
         2213.196     7.374013E-8
          2215.17     8.987330E-8
         2217.147     1.062602E-7
         2219.125     1.228902E-7
         2221.104     1.319875E-7
         2223.086     1.350200E-7
         2225.071     1.380879E-7
         2227.055     1.411838E-7
         2229.042     1.443172E-7
         2231.031     1.431223E-7
         2233.021     1.378151E-7
         2235.015     1.324141E-7
         2237.008     1.269321E-7
         2239.003     1.213616E-7
         2241.002     1.148726E-7
         2242.999     1.074655E-7
         2245.002     9.993475E-8
         2247.005     9.230186E-8
         2249.009     8.455708E-8
         2251.016     7.616432E-8
         2253.024     6.713567E-8
         2255.033     5.798334E-8
         2257.046     4.870005E-8
         2259.061     3.929187E-8
         2261.075     3.365227E-8
         2263.092     3.135760E-8
         2265.112     2.903016E-8
         2267.134     2.667117E-8
         2269.156     2.428225E-8
         2271.181     2.604640E-8
         2273.207     3.083974E-8
         2275.234     3.569038E-8
         2277.266     4.060450E-8
         2279.296     4.556633E-8
          2281.33     4.894129E-8
         2283.366     5.147384E-8
         2285.402     5.403073E-8
         2287.441     5.661821E-8
         2289.483     5.923301E-8
         2291.525     5.400187E-8
          2293.57     4.601649E-8
         2295.615     3.794705E-8
         2297.663     2.978135E-8
         2299.715     2.151202E-8
         2301.765     1.804646E-8
          2303.82     1.532823E-8
         2305.876     1.257700E-8
         2307.932     9.794287E-9
         2309.992     6.976311E-9
         2312.051     6.983827E-9
         2314.116     7.002057E-9
          2316.18     7.020128E-9
         2318.246     7.038060E-9
         2320.315     7.058741E-9
         2322.385     7.095426E-9
         2324.457     7.132211E-9
         2326.531     7.169050E-9
         2328.606     7.205971E-9
         2330.685     7.242841E-9
         2332.764     7.279385E-9
         2334.845     7.316009E-9
         2336.927     7.352706E-9
         2339.012     7.389481E-9
         2341.101     7.515281E-9
         2343.188     7.722122E-9
         2345.279     7.930887E-9
         2347.372     8.141678E-9
         2349.467     8.354360E-9
         2351.562     1.051177E-8
         2353.661     1.336029E-8
         2355.759     1.623405E-8
         2357.862     1.914084E-8
         2359.966     2.207677E-8
         2362.071     2.535125E-8
         2364.179     2.866518E-8
         2366.288     3.200936E-8
         2368.398     3.538620E-8
         2370.512     3.960264E-8
         2372.628     4.639124E-8
         2374.744     5.324055E-8
         2376.863     6.015942E-8
         2378.983     6.714020E-8
         2381.105     7.787134E-8
          2383.23     9.212053E-8
         2385.357     1.065017E-7
         2387.485     1.210086E-7
         2389.615     1.356483E-7
         2391.747     1.384795E-7
         2393.881     1.386822E-7
         2396.017     1.388825E-7
         2398.154     1.390803E-7
         2400.293     1.386167E-7
         2402.435     1.339741E-7
          2404.58     1.292852E-7
         2406.724     1.245535E-7
         2408.872     1.197730E-7
         2411.022     1.148529E-7
         2413.171     1.097890E-7
         2415.326     1.046684E-7
         2417.479     9.951022E-8
         2419.637     9.429723E-8
         2421.796     8.421631E-8
         2423.957     7.307465E-8
          2426.12     6.183002E-8
         2428.284     5.049598E-8
         2430.451     4.090883E-8
         2432.619     3.832295E-8
         2434.789     3.571496E-8
         2436.962     3.308272E-8
         2439.136     3.042822E-8
         2441.312     2.918725E-8
          2443.49     2.888400E-8
          2445.67     2.857746E-8
         2447.853     2.826772E-8
         2450.036     2.790374E-8
         2452.222     2.449225E-8
         2454.409     2.105310E-8
           2456.6     1.758386E-8
         2458.792     1.408712E-8
         2460.985     1.189147E-8
          2463.18     1.131275E-8
         2465.379     1.072889E-8
         2467.579     1.014032E-8
         2469.778     9.547676E-9
         2471.983     9.516697E-9
          2474.19     9.548995E-9
         2476.396     9.581289E-9
         2478.606     9.613670E-9
         2480.817     9.646021E-9
         2483.029     9.678314E-9
         2485.247     9.710703E-9
         2487.462     9.743079E-9
         2489.682     9.775548E-9
         2491.904     1.120978E-8
         2494.125     1.288736E-8
         2496.353     1.458047E-8
         2498.579     1.628398E-8
         2500.808     1.971514E-8
          2503.04     2.620279E-8
         2505.272     3.273418E-8
         2507.509     3.931876E-8
         2509.745     4.594663E-8
         2511.985     4.908053E-8
         2514.225     5.177724E-8
         2516.468     5.449336E-8
         2518.714     5.723015E-8
         2520.962     5.803111E-8
          2523.21     5.621276E-8
         2525.462     5.437864E-8
         2527.715     5.253110E-8
         2529.971     5.066766E-8
         2532.229     4.519113E-8
         2534.486     3.963208E-8
         2536.748     3.402434E-8
          2539.01     2.833245E-8
         2541.277     2.475577E-8
         2543.545     2.283422E-8
         2545.813     2.090617E-8
         2548.084     1.897063E-8
         2550.358     1.715775E-8
         2552.635     1.604073E-8
         2554.911     1.492015E-8
         2557.191     1.379436E-8
         2559.471     1.266553E-8
         2561.755     1.210553E-8
         2564.042     1.171681E-8
         2566.329     1.132670E-8
         2568.619     1.093480E-8
         2570.908     1.070403E-8
         2573.205     1.071954E-8
           2575.5     1.073495E-8
         2577.797     1.075029E-8
         2580.097     1.076558E-8
         2582.399     1.078130E-8
         2584.704     1.079696E-8
          2587.01     1.081253E-8
         2589.318     1.082803E-8
         2591.629     1.084382E-8
          2593.94     1.085969E-8
         2596.254     1.087547E-8
         2598.573     1.089119E-8
         2600.889     1.101803E-8
          2603.21     1.132461E-8
         2605.532     1.163202E-8
         2607.856     1.194047E-8
         2610.185     1.224569E-8
         2612.512     1.249773E-8
         2614.843     1.275086E-8
         2617.177     1.300481E-8
          2619.51     1.325926E-8
         2621.849     1.800650E-8
         2624.188     2.395857E-8
         2626.528     2.993313E-8
         2628.873     3.593445E-8
         2631.217     4.748731E-8
         2633.566     6.423310E-8
         2635.916     8.104266E-8
         2638.267     9.790691E-8
          2640.62     1.120169E-7
         2642.977     1.182904E-7
         2645.334     1.245832E-7
         2647.695     1.309022E-7
         2650.057     1.367370E-7
         2652.422     1.221410E-7
         2654.788     1.074959E-7
         2657.157     9.278242E-8
         2659.526     7.802814E-8
         2661.899     6.552980E-8
         2664.275     5.356451E-8
         2666.652     4.155871E-8
         2669.031     2.949909E-8
         2671.412     2.625850E-8
         2673.796     2.909739E-8
         2676.181     3.194496E-8
          2678.57     3.480489E-8
          2680.96     3.812551E-8
          2683.35     4.212584E-8
         2685.746     4.614815E-8
          2688.14     5.017802E-8
          2690.54     5.200345E-8
         2692.941     4.615143E-8
         2695.343     4.027913E-8
         2697.748     3.438072E-8
         2700.153     2.907302E-8
         2702.563     3.269776E-8
         2704.975     3.634688E-8
         2707.387     4.001855E-8
         2709.804     4.371766E-8
         2712.222     4.991606E-8
         2714.642     5.637198E-8
         2717.063     6.287109E-8
         2719.486     6.941482E-8
         2721.915     7.942860E-8
         2724.343     9.041807E-8
         2726.772     1.014821E-7
         2729.205     1.126209E-7
          2731.64     1.211110E-7
         2734.078     1.283283E-7
         2736.517     1.355889E-7
         2738.958     1.428963E-7
         2741.402     1.409955E-7
         2743.849     1.321694E-7
         2746.296     1.232864E-7
         2748.747     1.143349E-7
         2751.198     1.049065E-7
         2753.653     9.499180E-8
         2756.111     8.505547E-8
         2758.569     7.510341E-8
         2761.031     7.327089E-8
         2763.495     8.276118E-8
         2765.958     9.226049E-8
         2768.427     1.017914E-7
         2770.898     1.143438E-7
         2773.369     1.321739E-7
         2775.844     1.500525E-7
          2778.32     1.679586E-7
         2780.799     1.822666E-7
          2783.28     1.889448E-7
         2785.764     1.956375E-7
         2788.249     2.023395E-7
         2790.736     2.000281E-7
         2793.227     1.761913E-7
          2795.72     1.523055E-7
         2798.213     1.283848E-7
         2800.709     1.054035E-7
         2803.209     8.485716E-8
         2805.709     6.428149E-8
         2808.213     4.365036E-8
         2810.718     2.838438E-8
         2813.226     2.653046E-8
         2815.736     2.467397E-8
         2818.247     2.281381E-8
         2820.764     2.570312E-8
         2823.278     3.949983E-8
         2825.798     5.334035E-8
          2828.32     6.720731E-8
         2830.843     8.167837E-8
         2833.369     9.735493E-8
         2835.898     1.130625E-7
         2838.426     1.287798E-7
         2840.959     1.339601E-7
         2843.495     1.217519E-7
         2846.031     1.095284E-7
         2848.571     9.727312E-8
         2851.112     8.834042E-8
         2853.655     8.368423E-8
         2856.202     7.901688E-8
         2858.751     7.434115E-8
         2861.301     7.083053E-8
         2863.853     6.843987E-8
         2866.407     6.604476E-8
         2868.965     6.364377E-8
         2871.526     6.106018E-8
         2874.087     5.835281E-8
         2876.652     5.563871E-8
         2879.218     5.292175E-8
         2881.788     5.331472E-8
         2884.358     5.507269E-8
         2886.931     5.683382E-8
         2889.507     5.859889E-8
         2892.084     6.809923E-8
         2894.666     7.945266E-8
         2897.248     9.081941E-8
         2899.832     1.022038E-7
         2902.421     8.837354E-8
          2905.01     7.283533E-8
         2907.601     5.732505E-8
         2910.198     4.248769E-8
          2912.79     3.574240E-8
         2915.392     2.899320E-8
         2917.992     2.226557E-8
         2920.594     1.886232E-8
         2923.203     2.665323E-8
         2925.807     3.440978E-8
          2928.42     4.216896E-8
         2931.033     5.248805E-8
         2933.646     6.671370E-8
         2936.266     8.093507E-8
         2938.885     9.510821E-8
         2941.506     9.457310E-8
         2944.131     8.316933E-8
         2946.757     7.179624E-8
         2949.387     6.044021E-8
         2952.018     6.110322E-8
         2954.653     6.540459E-8
          2957.29     6.969617E-8
         2959.926     7.397274E-8
         2962.567     9.032753E-8
          2965.21     1.069854E-7
         2967.856     1.236133E-7
         2970.505     1.366748E-7
         2973.155     1.347361E-7
         2975.808     1.327996E-7
         2978.461     1.308692E-7
         2981.121     1.261365E-7
          2983.78     1.175783E-7
         2986.441     1.090395E-7
         2989.104     1.005208E-7
         2991.772     9.042378E-8
         2994.442     7.954863E-8
         2997.113     6.870503E-8
         2999.788     5.788022E-8
         3002.464     5.589868E-8
         3005.142     5.467784E-8
         3007.826     5.345804E-8
         3010.507     5.578615E-8
         3013.194     7.331576E-8
         3015.883     9.080075E-8
         3018.573     1.082297E-7
         3021.267     1.261041E-7
          3023.96     1.444479E-7
          3026.66     1.627765E-7
          3029.36     1.810346E-7
         3032.062     1.836662E-7
          3034.77     1.814574E-7
         3037.475     1.792568E-7
         3040.186     1.770106E-7
         3042.897     1.741262E-7
         3045.612     1.712479E-7
         3048.332     1.683723E-7
         3051.051     1.560982E-7
         3053.772     1.289302E-7
         3056.497     1.018169E-7
         3059.222     7.481453E-8
         3061.954     5.687745E-8
         3064.685     4.260851E-8
         3067.418     2.837822E-8
         3070.156     1.500210E-8
         3072.896     1.524599E-8
         3075.637     1.548891E-8
          3078.38     1.573098E-8
         3081.126     1.899628E-8
         3083.877     2.660668E-8
         3086.628     3.418565E-8
         3089.381     4.174120E-8
         3092.137     4.223986E-8
         3094.895     4.070120E-8
         3097.659     3.916488E-8
         3100.422     3.695538E-8
         3103.187     3.096070E-8
         3105.955     2.494356E-8
         3108.729     1.889643E-8
         3111.501     1.650095E-8
         3114.277     1.720935E-8
         3117.056     1.792078E-8
         3119.836     1.863431E-8
         3122.621     1.956494E-8
         3125.406     2.051190E-8
         3128.195     2.146281E-8
         3130.985     2.105502E-8
         3133.778     1.814587E-8
         3136.575     1.522409E-8
         3139.373     1.229319E-8
         3142.175     1.197468E-8
         3144.979     1.241416E-8
         3147.784     1.285501E-8
         3150.592     1.439281E-8
         3153.405     2.005642E-8
         3156.218     2.573362E-8
         3159.035     3.143577E-8
         3161.851     3.282375E-8
         3164.674     3.195219E-8
         3167.497     3.107834E-8
         3170.322     3.029684E-8
         3173.152     3.025721E-8
         3175.982     3.021736E-8
         3178.816     3.017725E-8
         3181.652     3.078233E-8
          3184.49     3.185300E-8
         3187.333     3.292902E-8
         3190.175     3.368906E-8
         3193.022     2.958019E-8
          3195.87     2.545816E-8
         3198.722     2.131832E-8
         3201.577     2.098139E-8
         3204.433     2.374289E-8
         3207.291     2.651453E-8
         3210.151     2.912890E-8
         3213.018     2.874866E-8
         3215.884     2.836739E-8
         3218.752     2.798458E-8
         3221.623     2.625982E-8
         3224.499     2.349421E-8
         3227.376     2.071803E-8
         3230.255     1.808090E-8
         3233.136     1.695646E-8
          3236.02     1.582771E-8
         3238.908     1.469396E-8
         3241.799     1.601990E-8
          3244.69     1.884795E-8
         3247.584     2.168694E-8
         3250.485     2.626019E-8
         3253.384     3.942933E-8
         3256.286     5.264827E-8
         3259.192     6.592497E-8
         3262.097     6.177334E-8
          3265.01     5.083991E-8
         3267.922     3.987954E-8
         3270.837     3.041564E-8
         3273.758     2.473488E-8
         3276.675     1.904713E-8
         3279.601     1.332331E-8
         3282.526     1.255484E-8
         3285.454     1.257061E-8
         3288.388     1.258642E-8
         3291.319     1.257286E-8
         3294.257     1.252318E-8
         3297.195     1.247330E-8
         3300.137     1.242636E-8
         3303.083     1.244441E-8
         3306.029     1.246248E-8
         3308.979     1.248059E-8
         3311.931     1.347417E-8
         3314.885     1.498827E-8
         3317.844     1.650899E-8
         3320.803     1.740595E-8
         3323.767     1.661360E-8
         3326.731     1.581862E-8
           3329.7     1.502003E-8
          3332.67     1.513821E-8
         3335.643     1.536020E-8
         3338.622     1.558324E-8
         3341.599     1.579466E-8
          3344.58     1.599635E-8
         3347.563     1.619873E-8
         3350.551     1.664784E-8
         3353.541     1.818899E-8
         3356.532     1.973514E-8
         3359.528     2.128808E-8
         3362.524     3.501332E-8
         3365.525     5.108180E-8
         3368.527     6.720300E-8
         3371.532     9.054350E-8
         3374.541     1.208929E-7
         3377.551     1.513426E-7
         3380.565     1.709454E-7
         3383.582     1.429202E-7
         3386.598     1.148196E-7
         3389.623     8.655682E-8
         3392.646     7.827033E-8
         3395.672     7.281579E-8
         3398.705     6.733303E-8
         3401.732     7.676100E-8
          3404.77     9.745814E-8
         3407.807     1.182110E-7
         3410.847     1.382436E-7
         3413.893     1.562960E-7
         3416.938     1.743970E-7
         3419.985     1.925699E-7
         3423.038     2.118921E-7
         3426.089     2.312718E-7
         3429.148     2.507630E-7
         3432.207     3.045162E-7
         3435.268     3.717133E-7
         3438.334     4.392194E-7
         3441.401     4.676979E-7
         3444.473     4.494916E-7
         3447.545     4.312244E-7
         3450.622     4.051186E-7
         3453.701     3.482098E-7
         3456.782     2.911123E-7
         3459.865     2.337803E-7
         3462.951     2.151880E-7
         3466.042     1.982984E-7
         3469.135     1.813402E-7
         3472.229     1.853995E-7
         3475.326     1.976738E-7
         3478.426     2.099971E-7
         3481.532     2.227680E-7
         3484.638     2.359707E-7
         3487.746     2.492251E-7
         3490.859     2.588270E-7
         3493.972     2.586899E-7
         3497.091     2.585511E-7
          3500.21     2.575721E-7
         3503.334     2.449293E-7
          3506.46     2.322326E-7
         3509.586     2.194977E-7
          3512.72     2.104117E-7
         3515.852     2.018701E-7
         3518.989     1.932824E-7
          3522.13     1.951107E-7
         3525.271     2.019151E-7
         3528.418     2.087511E-7
         3531.563     2.228483E-7
         3534.717     2.443932E-7
          3537.87     2.660024E-7
         3541.025     2.771517E-7
         3544.188     2.663540E-7
         3547.349     2.555236E-7
         3550.513     2.429501E-7
         3553.679     2.215302E-7
         3556.849     2.000177E-7
         3560.026     1.786448E-7
         3563.201     1.891112E-7
         3566.379     1.996210E-7
         3569.562     2.101827E-7
         3572.746     2.000656E-7
         3575.935     1.865826E-7
         3579.124     1.730500E-7
         3582.316     1.422406E-7
         3585.513     1.047487E-7
         3588.714     6.709062E-8
         3591.915     4.730490E-8
         3595.118     3.956647E-8
         3598.325     3.179361E-8
         3601.538     2.977591E-8
         3604.751     3.407407E-8
         3607.966     3.839054E-8
         3611.184     4.887369E-8
         3614.409     7.002144E-8
         3617.633     9.123374E-8
         3620.859     1.096545E-7
         3624.089     1.201968E-7
         3627.322     1.307841E-7
         3630.561     1.369983E-7
         3633.799     1.220329E-7
          3637.04     1.070013E-7
         3640.286     9.313493E-8
         3643.533     9.206443E-8
         3646.785     9.098827E-8
         3650.038     9.016331E-8
         3653.295     1.112708E-7
         3656.556     1.324725E-7
         3659.815     1.537386E-7
         3663.082     1.415869E-7
         3666.353     1.273555E-7
         3669.621     1.130863E-7
         3672.896     9.756573E-8
         3676.172     8.183056E-8
         3679.451     6.602662E-8
         3682.737     7.181211E-8
         3686.022     8.197185E-8
         3689.309     9.217541E-8
           3692.6     1.144728E-7
         3695.896     1.400907E-7
         3699.194     1.658233E-7
         3702.494     1.884936E-7
         3705.798     2.102523E-7
         3709.101     2.320790E-7
         3712.412     2.395806E-7
         3715.725     2.417159E-7
         3719.039     2.438583E-7
         3722.358     2.371094E-7
         3725.678     2.267002E-7
         3729.004     2.162368E-7
          3732.33     2.006610E-7
         3735.659     1.828387E-7
         3738.995     1.649142E-7
          3742.33     1.573275E-7
         3745.668     1.542033E-7
         3749.009     1.510644E-7
         3752.354     1.502481E-7
         3755.703     1.504152E-7
         3759.053     1.505823E-7
         3762.408     1.394795E-7
         3765.764     1.238936E-7
         3769.125     1.082292E-7
         3772.487     9.394081E-8
         3775.852     8.009548E-8
         3779.222     6.617827E-8
         3782.594     5.487900E-8
         3785.968     4.434143E-8
         3789.345     3.375639E-8
         3792.725     3.015576E-8
         3796.112     2.823070E-8
         3799.498     2.629930E-8
         3802.887     3.470071E-8
         3806.279     4.494183E-8
         3809.676     5.523534E-8
         3813.076     6.626200E-8
         3816.477     7.740392E-8
         3819.881     8.859438E-8
          3823.29     9.386890E-8
           3826.7     9.894676E-8
         3830.116     1.037964E-7
         3833.532     1.014287E-7
         3836.951     9.905011E-8
         3840.378     9.523616E-8
         3843.803     7.991763E-8
         3847.232     6.453193E-8
         3850.663     5.182948E-8
         3854.102     5.058347E-8
          3857.54     4.933325E-8
          3860.98     5.134375E-8
         3864.426     6.158922E-8
         3867.875     7.187936E-8
         3871.325     7.844275E-8
         3874.778     7.898028E-8
         3878.234     7.951977E-8
         3881.695     7.528006E-8
         3885.157     6.603383E-8
         3888.625     5.674111E-8
         3892.094     5.435477E-8
         3895.565     5.652857E-8
         3899.044     5.871434E-8
         3902.521     7.372867E-8
         3906.002     9.368343E-8
         3909.489     1.137354E-7
         3912.975     1.302160E-7
         3916.468     1.461500E-7
         3919.961     1.621409E-7
         3923.457     1.451262E-7
         3926.961     1.276416E-7
         3930.462     1.121208E-7
         3933.969     1.097676E-7
         3937.478     1.074053E-7
         3940.992     1.076392E-7
          3944.51     1.145178E-7
         3948.028     1.214206E-7
          3951.55     1.294157E-7
         3955.074     1.388001E-7
         3958.606     1.482353E-7
         3962.137     1.619659E-7
         3965.671     1.785426E-7
          3969.21     1.951979E-7
          3972.75     1.907514E-7
         3976.296     1.801879E-7
         3979.843     1.695865E-7
         3983.395     1.652698E-7
          3986.95     1.612290E-7
         3990.504     1.595788E-7
         3994.065     1.725157E-7
          3997.63     1.855055E-7
         4001.196     1.961410E-7
         4004.767     2.020428E-7
         4008.339     2.079443E-7
         4011.914     2.039128E-7
         4015.494     1.912394E-7
         4019.078     1.785593E-7
         4022.663     1.583510E-7
         4026.251     1.355227E-7
         4029.844     1.126707E-7
         4033.441     9.977637E-8
         4037.039     8.733534E-8
         4040.639     7.787236E-8
         4044.243     8.223506E-8
         4047.855     8.660513E-8
         4051.465     9.439194E-8
         4055.079     1.071929E-7
         4058.698     1.200064E-7
         4062.316     1.260697E-7
         4065.944     1.283491E-7
          4069.57     1.306263E-7
           4073.2     1.226163E-7
         4076.838     1.132102E-7
         4080.472     1.045372E-7
         4084.114     1.006820E-7
         4087.756     9.682772E-8
         4091.405     9.084534E-8
         4095.056     8.146473E-8
         4098.708     7.208796E-8
         4102.367     6.427269E-8
         4106.026     5.731760E-8
         4109.688     5.036156E-8
         4113.356     5.694956E-8
         4117.025     6.479452E-8
         4120.699     7.306598E-8
         4124.375     8.312237E-8
         4128.056     9.318731E-8
         4131.738     9.689819E-8
         4135.423     9.350239E-8
         4139.116     9.010143E-8
         4142.808     8.817055E-8
         4146.503     8.670072E-8
         4150.201     8.551427E-8
         4153.903     8.925867E-8
         4157.613     9.300732E-8
         4161.321     9.675909E-8
         4165.033     1.005238E-7
         4168.748     1.042887E-7
         4172.466     1.010766E-7
         4176.192     9.431056E-8
         4179.917     8.755207E-8
         4183.645     7.434236E-8
         4187.379     6.097627E-8
         4191.116     5.085977E-8
         4194.854     4.838028E-8
         4198.596     4.590071E-8
         4202.343     4.706176E-8
         4206.094     5.041305E-8
         4209.845     5.377129E-8
         4213.603     4.570914E-8
         4217.358     3.714392E-8
         4221.123     2.966538E-8
          4224.89     2.481055E-8
         4228.658     1.994506E-8
         4232.432     1.806691E-8
         4236.208     1.784356E-8
         4239.988     1.761946E-8
          4243.77     1.763433E-8
         4247.555     1.764997E-8
         4251.348     1.766563E-8
          4255.14     1.768127E-8
         4258.936     1.769693E-8
         4262.734     1.771244E-8
         4266.537     1.772788E-8
         4270.347     1.774337E-8
         4274.155     1.775883E-8
         4277.968     1.777433E-8
         4281.786     1.778972E-8
         4285.605     1.780500E-8
          4289.43     1.782031E-8
         4293.256     1.783559E-8
         4297.085     1.785088E-8
         4300.922     1.786615E-8
         4304.759     1.788126E-8
         4308.598     1.789638E-8
         4312.441     1.791150E-8
          4316.29     1.792663E-8
         4320.142     1.794178E-8
         4323.996     1.795691E-8
         4327.854     1.797207E-8
         4331.715     1.798723E-8
         4335.581     1.800240E-8
         4339.448     1.801757E-8
         4343.318     1.803255E-8
         4347.195     1.804753E-8
         4351.072     1.806245E-8
         4354.956     1.807723E-8
          4358.84     1.809202E-8
         4362.728     1.987659E-8
         4366.624     2.242323E-8
         4370.519     3.890239E-8
         4374.417     1.462767E-7
         4378.318     2.539070E-7
         4382.229     1.089498E-6
         4386.137     2.475385E-6
         4390.049     3.875517E-6
         4393.967     6.125653E-6
         4397.889     8.381648E-6
         4401.812     1.022430E-5
         4405.738     1.158471E-5
         4409.667     1.294852E-5
         4413.603     1.322374E-5
         4417.542     1.339862E-5
         4421.482     1.315620E-5
         4425.426     1.221955E-5
         4429.373     1.128068E-5
         4433.329     9.831347E-6
         4437.283     8.284548E-6
         4441.241     6.759012E-6
         4445.205     5.283156E-6
         4449.169     3.804565E-6
          4453.14     2.752787E-6
         4457.112     1.813188E-6
         4461.088     1.035549E-6
         4465.069     6.925225E-7
         4469.052     3.488698E-7
         4473.041     2.153578E-7
          4477.03     1.475469E-7
         4481.028     9.509837E-8
         4485.022     8.769336E-8
         4489.025     8.026027E-8
         4493.032     7.758633E-8
         4497.039     7.644478E-8
         4501.053     7.517784E-8
         4505.067     7.355780E-8
         4509.086     7.192069E-8
         4513.107     7.790393E-8
         4517.136     8.620236E-8
         4521.167     9.403064E-8
           4525.2     1.005902E-7
         4529.238     1.072086E-7
         4533.281     1.093496E-7
         4537.324     1.104480E-7
         4541.371     1.104004E-7
         4545.422     1.080895E-7
         4549.479     1.057540E-7
         4553.539     9.966276E-8
           4557.6     9.296635E-8
         4561.668     8.805045E-8
         4565.734     8.576128E-8
         4569.809     8.344664E-8
         4573.887     9.205448E-8
         4577.967     1.012700E-7
         4582.053     1.123584E-7
         4586.142     1.253233E-7
         4590.233     1.385588E-7
         4594.327     1.547407E-7
         4598.425     1.710547E-7
         4602.529     2.323030E-7
         4606.637     3.220977E-7
         4610.746     4.703039E-7
          4614.86     8.815459E-7
         4618.979     1.296288E-6
         4623.097     2.569632E-6
         4627.223     4.138754E-6
          4631.35     7.195132E-6
         4635.483     1.333147E-5
         4639.621     1.951794E-5
         4643.759     4.043314E-5
           4647.9     6.300701E-5
         4652.046     1.103422E-4
         4656.198     1.834282E-4
         4660.354     2.674430E-4
         4664.511     4.637501E-4
         4668.673     6.617209E-4
          4672.84     9.592873E-4
         4677.005     0.001304741
          4681.18     0.001775952
         4685.355     0.002562833
         4689.537     0.003356494
         4693.722     0.004156447
         4697.909     0.004962166
         4702.102      0.00577474
         4706.293     0.006592683
         4710.493     0.007417969
         4714.697     0.008249586
         4718.902     0.009087037
         4723.114      0.01058112
          4727.33      0.01222709
         4731.543      0.01380402
         4735.766       0.0153413
          4739.99      0.01684786
         4744.221      0.01837424
         4748.455      0.01995726
          4752.69      0.02162891
         4756.932      0.02342112
         4761.172      0.02533767
         4765.421      0.02740421
         4769.674      0.02961786
         4773.929      0.03196005
         4778.189      0.03442665
         4782.454      0.03702975
         4786.719      0.03972746
         4790.989      0.04244558
         4795.262      0.04514433
         4799.542       0.0477708
         4803.826      0.05024554
          4808.11      0.05254194
         4812.401      0.05460147
         4816.696      0.05638922
         4820.993       0.0579096
         4825.292      0.05915771
         4829.597      0.06012869
         4833.907      0.06086091
         4838.221      0.06138156
         4842.537      0.06172462
         4846.855      0.06195117
         4851.179      0.06208407
         4855.508      0.06214755
         4859.842       0.0621688
         4864.177      0.06220536
         4868.518      0.06227881
         4872.863      0.06237793
         4877.209      0.06251351
          4881.56      0.06271458
         4885.914      0.06295767
         4890.277      0.06328712
         4894.639      0.06369365
         4899.004      0.06417714
         4903.376      0.06470872
         4907.748      0.06528095
          4912.13      0.06590792
         4916.512        0.066559
         4920.897      0.06723353
         4925.289      0.06795743
         4929.685      0.06870291
         4934.082       0.0694263
         4938.482      0.07015736
         4942.887      0.07085254
         4947.301      0.07150377
         4951.714      0.07215272
         4956.131      0.07272518
         4960.554      0.07328213
         4964.976      0.07379813
          4969.41      0.07424549
         4973.842      0.07466035
         4978.278      0.07502562
         4982.724      0.07534265
         4987.168       0.0756195
         4991.617      0.07585522
         4996.069      0.07607832
         5000.528      0.07629728
         5004.991      0.07656185
         5009.455      0.07683538
         5013.923      0.07711778
         5018.398      0.07742291
         5022.874      0.07772936
         5027.357      0.07806736
         5031.841      0.07841575
         5036.329      0.07879934
         5040.827      0.07928258
         5045.323      0.07980638
         5049.823      0.08033795
         5054.327      0.08092162
         5058.838      0.08155592
         5063.353       0.0822319
         5067.869      0.08294082
          5072.39      0.08369482
         5076.919      0.08448686
         5081.448      0.08528841
          5085.98      0.08609774
         5090.516      0.08692624
          5095.06      0.08777516
         5099.607      0.08861195
         5104.155      0.08943186
         5108.708      0.09021986
         5113.265      0.09095532
         5117.828      0.09163054
         5122.396      0.09223972
         5126.965      0.09280446
         5131.538      0.09332294
          5136.12      0.09373038
         5140.701      0.09404714
         5145.287      0.09428801
         5149.876      0.09447029
         5154.472      0.09455026
         5159.072      0.09452741
         5163.674      0.09446193
         5168.283      0.09431883
         5172.895       0.0940766
         5177.506      0.09377842
         5182.127      0.09339378
         5186.749      0.09299087
         5191.378      0.09261581
         5196.012      0.09224063
         5200.646      0.09183975
         5205.285      0.09141865
         5209.928      0.09096923
         5214.577      0.09049968
         5219.231       0.0901079
         5223.887      0.08980456
         5228.549      0.08955348
         5233.215      0.08937711
          5237.88      0.08924456
         5242.555      0.08917554
         5247.231      0.08913004
         5251.914      0.08913028
         5256.601      0.08916821
          5261.29      0.08930259
         5265.985      0.08957633
          5270.68      0.08997919
         5275.383      0.09047364
         5280.092      0.09105869
         5284.801       0.0916592
         5289.518      0.09227729
         5294.239      0.09296373
         5298.958      0.09370708
         5303.687      0.09456673
         5308.418       0.0955302
         5313.155      0.09657636
         5317.897      0.09770186
         5322.641      0.09885205
         5327.391      0.09996967
          5332.14       0.1010673
         5336.899       0.1022425
         5341.662       0.1034117
         5346.426       0.1045818
         5351.198       0.1057569
         5355.974       0.1069443
         5360.751       0.1081193
         5365.532       0.1091779
         5370.318       0.1102217
         5375.111       0.1111656
         5379.908       0.1120169
         5384.707       0.1128193
         5389.513       0.1135387
         5394.323       0.1141718
         5399.131       0.1147299
          5403.95       0.1152019
          5408.77       0.1155977
         5413.597       0.1158904
         5418.429       0.1161126
         5423.262       0.1163257
         5428.099       0.1164766
          5432.94        0.116575
         5437.792        0.116581
         5442.643       0.1165779
         5447.497       0.1165482
         5452.359       0.1165009
         5457.225       0.1164104
         5462.092       0.1163932
         5466.964       0.1163948
          5471.84       0.1163808
         5476.724       0.1164458
         5481.612       0.1165599
         5486.501        0.116662
         5491.398       0.1168433
         5496.293       0.1170506
         5501.198       0.1172835
         5506.108       0.1175864
         5511.019       0.1179909
         5515.938       0.1184083
          5520.86       0.1189265
         5525.785       0.1194951
         5530.713       0.1200972
         5535.646       0.1207502
         5540.587       0.1214139
         5545.532       0.1221111
         5550.478       0.1228219
         5555.432       0.1236345
         5560.387       0.1244495
         5565.347        0.125231
         5570.313       0.1260748
         5575.282       0.1268524
         5580.258       0.1275981
         5585.238       0.1282889
          5590.22       0.1289352
         5595.206       0.1295594
         5600.197       0.1301129
         5605.198       0.1304643
         5610.197       0.1307467
         5615.201       0.1309439
         5620.213       0.1310193
         5625.226       0.1310383
         5630.246       0.1309621
         5635.268       0.1307936
         5640.294       0.1305656
         5645.328        0.130227
         5650.367       0.1298089
         5655.406       0.1293423
         5660.451       0.1288235
         5665.502       0.1282434
         5670.559       0.1276353
         5675.617       0.1269965
         5680.679       0.1262736
         5685.752       0.1255294
         5690.823       0.1247986
         5695.899       0.1243586
         5700.979       0.1239342
         5706.064       0.1233374
          5711.16       0.1227995
         5716.254       0.1223157
         5721.353       0.1218122
         5726.456       0.1213173
         5731.567       0.1208991
         5736.682       0.1205266
         5741.799       0.1202379
          5746.92       0.1200177
         5752.053         0.11997
         5757.183       0.1199893
         5762.318       0.1201114
         5767.458       0.1203126
         5772.602       0.1205225
         5777.757       0.1207721
         5782.911       0.1211139
         5788.068       0.1215346
         5793.237       0.1220313
         5798.401       0.1226441
         5803.577       0.1233469
         5808.753       0.1241437
         5813.937       0.1250071
         5819.126       0.1258947
         5824.316       0.1267394
         5829.511       0.1276208
         5834.711       0.1285581
         5839.918       0.1295446
          5845.13       0.1305928
         5850.344       0.1315865
         5855.562       0.1325841
         5860.792       0.1335942
         5866.016       0.1345384
         5871.251       0.1354123
         5876.488       0.1363204
         5881.732       0.1371435
         5886.982       0.1379692
         5892.232       0.1387047
         5897.491       0.1394102
         5902.749        0.140001
         5908.017       0.1405537
          5913.29        0.141005
         5918.563       0.1413485
         5923.846       0.1416527
         5929.133       0.1418426
         5934.421       0.1419822
         5939.714       0.1421092
         5945.012       0.1421481
         5950.318       0.1421049
         5955.629       0.1420462
         5960.941       0.1419223
         5966.258       0.1418075
         5971.579        0.141643
         5976.909       0.1414266
         5982.243       0.1412065
         5987.579       0.1410011
         5992.923       0.1407792
         5998.271       0.1405894
         6003.622       0.1403821
         6008.976       0.1401303
         6014.336       0.1399089
         6019.704       0.1396506
         6025.076       0.1394282
          6030.45       0.1392134
         6035.832       0.1390467
         6041.219       0.1389447
         6046.604       0.1389653
         6052.001       0.1390247
         6057.399       0.1391403
         6062.805       0.1393765
         6068.216       0.1395774
         6073.628       0.1397593
         6079.046       0.1400155
         6084.468       0.1402965
         6089.898       0.1405238
         6095.333       0.1408909
          6100.77       0.1413431
         6106.215       0.1417346
         6111.665       0.1422018
         6117.112       0.1426821
         6122.572       0.1431594
         6128.033       0.1435854
         6133.502       0.1440013
         6138.976       0.1444326
         6144.452        0.144833
         6149.936       0.1452124
         6155.417       0.1455392
         6160.911       0.1458921
          6166.41       0.1461369
          6171.91       0.1463208
         6177.418       0.1464838
         6182.932        0.146557
         6188.443       0.1465883
         6193.966       0.1465667
         6199.491       0.1464817
         6205.024       0.1463957
         6210.562       0.1462345
         6216.101        0.146023
         6221.649       0.1457388
         6227.195       0.1453875
         6232.756        0.145061
         6238.315       0.1446685
         6243.879       0.1442436
         6249.452       0.1437927
         6255.029       0.1432855
         6260.608       0.1427823
         6266.193       0.1423205
         6271.782       0.1418055
         6277.379       0.1412724
         6282.982       0.1408002
         6288.586       0.1403614
         6294.198        0.139884
         6299.809       0.1394349
         6305.435       0.1390343
         6311.059        0.138643
         6316.688       0.1382853
         6322.326       0.1379933
         6327.968       0.1378054
         6333.612       0.1376022
         6339.262        0.137517
         6344.916       0.1374533
         6350.579       0.1374277
         6356.247       0.1374316
         6361.916       0.1374376
         6367.594       0.1375523
         6373.277       0.1376833
         6378.961       0.1379039
         6384.651       0.1381602
         6390.346       0.1384472
         6396.049       0.1387775
         6401.757        0.139175
         6407.467       0.1395886
         6413.183       0.1399919
         6418.906       0.1403836
         6424.631       0.1407851
         6430.365       0.1411429
         6436.104       0.1415728
         6441.845       0.1420567
         6447.594       0.1424946
         6453.345       0.1429075
         6459.101       0.1433462
         6464.866       0.1437543
         6470.632       0.1440708
         6476.407       0.1444102
         6482.184       0.1446942
         6487.969       0.1448405
         6493.756       0.1449831
         6499.548       0.1451126
         6505.349        0.145023
         6511.154       0.1448341
         6516.962       0.1445401
         6522.778       0.1438854
         6528.596        0.143326
         6534.419       0.1433946
         6540.251       0.1432266
         6546.088       0.1426985
         6551.927       0.1422141
         6557.771       0.1416838
         6563.624       0.1411573
         6569.478       0.1405787
         6575.341       0.1399708
         6581.206       0.1393355
          6587.08       0.1386716
         6592.955        0.138087
         6598.839       0.1374847
         6604.729       0.1369404
         6610.616       0.1364595
         6616.516       0.1360003
         6622.421       0.1355342
         6628.328       0.1351355
         6634.244       0.1347317
         6640.165       0.1342882
         6646.087       0.1339463
         6652.015       0.1336017
         6657.948       0.1333111
         6663.891       0.1330937
         6669.838       0.1329178
         6675.787       0.1328669
         6681.745        0.132855
         6687.701       0.1329042
          6693.67       0.1329489
         6699.644       0.1329991
          6705.62       0.1330554
         6711.604       0.1331134
         6717.594       0.1331706
         6723.586       0.1331737
         6729.583       0.1332435
         6735.585        0.133257
         6741.597       0.1331767
         6747.613       0.1330427
         6753.632       0.1328491
          6759.66       0.1325541
         6765.692       0.1321587
         6771.723       0.1316305
         6777.767       0.1309578
         6783.813       0.1301885
         6789.867       0.1292252
         6795.927       0.1280937
         6801.988       0.1267702
         6808.055       0.1252655
         6814.127        0.123526
         6820.209       0.1215967
         6826.296       0.1195296
         6832.385        0.117284
         6838.482       0.1149745
         6844.586       0.1126764
         6850.687       0.1103392
         6856.801       0.1078664
         6862.917       0.1053823
         6869.042       0.1027566
         6875.173       0.1001645
         6881.305      0.09751955
         6887.446      0.09486109
         6893.586      0.09226119
         6899.738      0.08969955
         6905.896      0.08722088
         6912.056      0.08485264
         6918.225      0.08271214
         6924.399      0.08071929
         6930.572      0.07891958
         6936.757      0.07732432
         6942.944      0.07581993
         6949.141       0.0744235
         6955.343      0.07313687
         6961.546      0.07195041
          6967.76      0.07080189
         6973.971      0.06982271
         6980.195       0.0690686
         6986.424      0.06852949
         6992.656      0.06826518
         6998.897      0.06823538
         7005.143      0.06847278
         7011.392      0.06897312
         7017.645      0.06970436
         7023.904      0.07068654
         7030.173      0.07185955
         7036.448      0.07325373
         7042.724      0.07490373
         7049.009      0.07684792
         7055.292      0.07916067
         7061.589      0.08188017
         7067.892      0.08510364
         7074.196      0.08888888
          7080.51      0.09302612
         7086.829      0.09747867
          7093.15       0.1019462
         7099.477       0.1061365
         7105.809       0.1096985
         7112.151       0.1122027
         7118.498       0.1131034
         7124.848       0.1120952
         7131.207       0.1086065
         7137.571       0.1026973
         7143.933      0.09466755
         7150.309      0.08508788
         7156.687      0.07469121
         7163.074      0.06441157
         7169.467      0.05480754
         7175.862      0.04633179
         7182.262      0.03897694
         7188.668      0.03263919
         7195.084      0.02732274
         7201.506       0.0228723
         7207.929      0.01920387
         7214.362      0.01618147
         7220.801      0.01370442
         7227.237      0.01164849
         7233.688     0.009934191
         7240.144     0.008509723
         7246.601      0.00733216
         7253.069     0.006335225
         7259.538     0.005488333
         7266.017     0.004768417
         7272.498     0.004146777
         7278.989     0.003625693
         7285.481       0.0031768
         7291.979     0.002641136
         7298.487     0.002346197
         7305.001     0.002095857
         7311.517     0.001869767
         7318.038     0.001677118
         7324.569     0.001508099
         7331.103     0.001354193
         7337.646     0.001222567
          7344.19     0.001126679
         7350.745     0.001048393
         7357.301     9.515085E-4
         7363.867     8.636233E-4
         7370.436     7.829983E-4
         7377.014     7.141390E-4
         7383.593     6.513433E-4
         7390.183     5.937633E-4
         7396.775     5.447438E-4
         7403.372     4.994787E-4
         7409.979     4.577560E-4
         7416.589     4.217123E-4
         7423.208     3.879934E-4
         7429.829     3.567394E-4
          7436.46     3.294321E-4
         7443.097     3.040199E-4
         7449.736     2.806362E-4
         7456.381     2.601650E-4
         7463.036     2.410687E-4
         7469.692     2.234690E-4
         7476.359     2.081095E-4
         7483.027     1.937535E-4
         7489.702     1.804427E-4
         7496.386     1.686297E-4
         7503.077     1.575049E-4
         7509.769     1.471013E-4
         7516.471     1.375958E-4
         7523.175     1.286574E-4
          7529.89     1.202934E-4
         7536.606     1.127721E-4
         7543.328     1.057359E-4
         7550.061     9.917843E-5
         7556.794     9.334137E-5
         7563.539     8.782178E-5
          7570.29     8.261595E-5
         7577.042     7.792338E-5
           7583.8     7.349019E-5
         7590.568     6.929466E-5
         7597.339     6.549771E-5
         7604.119     6.195058E-5
         7610.906     5.861103E-5
         7617.694     5.554617E-5
         7624.489     5.264449E-5
          7631.29     4.988168E-5
           7638.1     4.733737E-5
         7644.917     4.495622E-5
         7651.736     4.268984E-5
         7658.565     4.055934E-5
         7665.396     3.860398E-5
         7672.233     3.674641E-5
         7679.081     3.498824E-5
          7685.93     3.338421E-5
          7692.79     3.187736E-5
         7699.655     3.047668E-5
         7706.523     2.911478E-5
         7713.401     2.781120E-5
         7720.276     2.657090E-5
         7727.167     2.542029E-5
         7734.063     2.432403E-5
         7740.961     2.327837E-5
          7747.87     2.230228E-5
         7754.785     2.139604E-5
         7761.697     2.054438E-5
         7768.625     1.975695E-5
         7775.554     1.898932E-5
         7782.494     1.823151E-5
         7789.439     1.748209E-5
         7796.387     1.681025E-5
         7803.345     1.617169E-5
         7810.301     1.556488E-5
         7817.271     1.500708E-5
         7824.249     1.446357E-5
         7831.227     1.393173E-5
         7838.216     1.340764E-5
         7845.212     1.290447E-5
         7852.209     1.241443E-5
         7859.213     1.193547E-5
         7866.223     1.145936E-5
         7873.244     1.099950E-5
         7880.271     1.056075E-5
         7887.299     1.018701E-5
         7894.338     9.811697E-6
         7901.375     9.449393E-6
         7908.427     9.140388E-6
         7915.485     8.842271E-6
         7922.545     8.542456E-6
         7929.616     8.233205E-6
         7936.693     7.972669E-6
         7943.772     7.754431E-6
         7950.858     7.575320E-6
          7957.95     7.431340E-6
         7965.052     7.362130E-6
         7972.161     7.339731E-6
         7979.271     7.355108E-6
         7986.393     7.278672E-6
         7993.521     6.690313E-6
         8000.646     5.687233E-6
         8007.786     5.619025E-6
         8014.929     5.631297E-6
         8022.082     5.702638E-6
         8029.242     5.830323E-6
         8036.403     5.824260E-6
         8043.576     5.891515E-6
         8050.746     6.004804E-6
         8057.931     5.755880E-6
         8065.123     5.254280E-6
         8072.316     4.834128E-6
         8079.521     4.792459E-6
         8086.731     4.660482E-6
          8093.94     4.339202E-6
         8101.164     3.921503E-6
         8108.389     3.783166E-6
         8115.626     3.772843E-6
         8122.869     3.781365E-6
         8130.114     3.770269E-6
          8137.37     4.179301E-6
         8144.628     4.602951E-6
         8151.893     4.816578E-6
         8159.168     4.416903E-6
         8166.446     4.170416E-6
         8173.734     4.017227E-6
         8181.029     3.867407E-6
         8188.326     3.318744E-6
          8195.63     2.986150E-6
         8202.939     2.982235E-6
         8210.261     3.359411E-6
         8217.588     3.518362E-6
         8224.918     3.441518E-6
         8232.259     3.228675E-6
         8239.602     2.967790E-6
          8246.95     2.977052E-6
         8254.311     3.204930E-6
         8261.673     3.482261E-6
         8269.047     3.449055E-6
         8276.427     3.187951E-6
         8283.809     3.090228E-6
         8291.197     3.191510E-6
         8298.597     3.379294E-6
         8305.999     3.362544E-6
         8313.412     3.150803E-6
         8320.827     2.781536E-6
         8328.253     2.514576E-6
         8335.687     2.384936E-6
         8343.121     2.303349E-6
         8350.563     2.243213E-6
         8358.011     2.342015E-6
         8365.471     2.481283E-6
         8372.937     2.603436E-6
         8380.409     2.670275E-6
         8387.879     2.622773E-6
         8395.365     2.688561E-6
         8402.854     2.848147E-6
         8410.353     3.075802E-6
         8417.859     3.067811E-6
         8425.367     2.871942E-6
         8432.887     2.670949E-6
         8440.408     2.587837E-6
         8447.937     2.620192E-6
         8455.477     2.396177E-6
         8463.019     2.167643E-6
         8470.571     2.088517E-6
         8478.127     2.170287E-6
         8485.693     2.237910E-6
         8493.262     2.347848E-6
         8500.842     2.518824E-6
         8508.425     2.683556E-6
         8516.019     2.835320E-6
         8523.614     2.952393E-6
         8531.221     3.013918E-6
          8538.83     2.963769E-6
         8546.446     2.692557E-6
         8554.074     2.415009E-6
         8561.704     2.226800E-6
         8569.345     2.245726E-6
         8576.993     2.321984E-6
         8584.644     2.415677E-6
         8592.301     2.519961E-6
         8599.969     2.630716E-6
          8607.64     2.857429E-6
         8615.321     2.898173E-6
         8623.006     2.799019E-6
         8630.702     2.631018E-6
         8638.405     2.665908E-6
         8646.105     2.702503E-6
         8653.821     2.752677E-6
          8661.54     2.778862E-6
         8669.271     2.656696E-6
         8677.008     2.491761E-6
         8684.747     2.371096E-6
         8692.493     2.263619E-6
         8700.251     2.126462E-6
         8708.012     2.178297E-6
         8715.783     2.292725E-6
         8723.563     2.301503E-6
         8731.343     2.119112E-6
         8739.136     1.735565E-6
         8746.926     1.479321E-6
         8754.732     1.226869E-6
         8762.546     9.743975E-7
         8770.361     7.508573E-7
         8778.188     8.004845E-7
         8786.019     8.216780E-7
         8793.859     8.017872E-7
         8801.703     7.401455E-7
         8809.554     6.482938E-7
         8817.416     6.616473E-7
         8825.286     6.983364E-7
         8833.157     6.820628E-7
         8841.041     5.635623E-7
         8848.922     3.692092E-7
         8856.819     1.834343E-7
         8864.724     1.324820E-7
         8872.631     2.158462E-7
          8880.55     3.771258E-7
         8888.476     3.752777E-7
         8896.403     2.021690E-7
         8904.338     9.428030E-8
          8912.28     1.612271E-7
         8920.234     4.379559E-7
         8928.195     4.849724E-7
         8936.159     3.516115E-7
         8944.135     2.592348E-7
         8952.117     2.424767E-7
         8960.097     1.985681E-7
         8968.094     2.248936E-7
         8976.093     3.648317E-7
         8984.104     3.945663E-7
         8992.122     2.583246E-7
         9000.143     4.598004E-8
         9008.175     2.239434E-8
         9016.205     2.391073E-8
         9024.252     4.350213E-8
         9032.306     8.741744E-8
         9040.362     1.644543E-7
         9048.431     1.701850E-7
         9056.506     1.140534E-7
         9064.579     6.270488E-8
         9072.669     4.072044E-8
         9080.761     5.039521E-8
         9088.865     8.034235E-8
         9096.978     6.493918E-8
         9105.092     4.494468E-8
         9113.218     3.519410E-8
         9121.341     3.655696E-8
         9129.481     2.812157E-8
          9137.63     2.405394E-8
          9145.78     3.753277E-8
         9153.942     6.946580E-8
         9162.112     1.103952E-7
         9170.284     1.458584E-7
         9178.464     2.745664E-7
         9186.655     2.785016E-7
         9194.849     1.992402E-7
         9203.056     1.097236E-7
         9211.264     7.122298E-8
         9219.485     6.463553E-8
         9227.708     8.727667E-8
         9235.938     9.492878E-8
         9244.182     6.381283E-8
         9252.427     1.759718E-8
         9260.685     9.616328E-9
         9268.949     1.100840E-8
         9277.217     3.341262E-8
         9285.492     1.078044E-7
         9293.779     1.488834E-7
         9302.068     1.232998E-7
          9310.37     1.057168E-7
         9318.675     1.825891E-7
         9326.991     2.190309E-7
         9335.315     2.022104E-7
         9343.637     1.953044E-7
         9351.977     2.566265E-7
         9360.317     3.914147E-7
         9368.672     5.099058E-7
         9377.033     4.448883E-7
         9385.396     3.150563E-7
         9393.768     2.170729E-7
         9402.152     1.722089E-7
         9410.538     1.194735E-7
         9418.937     1.564190E-7
         9427.338     1.903369E-7
         9435.752     1.399225E-7
         9444.173     8.688274E-8
         9452.592     8.937895E-8
         9461.028     1.458658E-7
         9469.472     2.696335E-7
         9477.918     2.535742E-7
         9486.377     2.131904E-7
         9494.838     2.134562E-7
         9503.313     2.780166E-7
         9511.788     3.823326E-7
         9520.272     4.509640E-7
          9528.77     3.141770E-7
         9537.269     1.871012E-7
          9545.78     1.869267E-7
           9554.3     2.850790E-7
         9562.821     3.892403E-7
         9571.351     4.242204E-7
         9579.894     4.354141E-7
         9588.438     3.469752E-7
         9596.995     3.484371E-7
         9605.561     4.286342E-7
         9614.128     4.503777E-7
         9622.704     4.202072E-7
         9631.286     4.836251E-7
         9639.882     5.646478E-7
         9648.485     4.614691E-7
         9657.092     4.114505E-7
         9665.711     4.450135E-7
         9674.332     5.086005E-7
         9682.961     5.389072E-7
         9691.603     5.105185E-7
         9700.252     4.531475E-7
         9708.904     4.183111E-7
         9717.569     3.836483E-7
         9726.237     3.465101E-7
         9734.912     3.287649E-7
         9743.601     3.125188E-7
         9752.291     2.641332E-7
         9760.995     1.901878E-7
         9769.701     1.956908E-7
         9778.421     2.387457E-7
         9787.147     2.333283E-7
         9795.872     2.353407E-7
         9804.614     2.532959E-7
         9813.359     2.640178E-7
         9822.118     2.578543E-7
         9830.884     2.622346E-7
         9839.652     2.430273E-7
         9848.435     2.366502E-7
         9857.219     2.168451E-7
         9866.011     1.899542E-7
         9874.816     1.657558E-7
         9883.624     1.563888E-7
         9892.444     1.698313E-7
         9901.273     1.943043E-7
         9910.104     1.761130E-7
         9918.944     2.135084E-7
         9927.791     2.324426E-7
         9936.651     2.316433E-7
         9945.521     2.407909E-7
         9954.391     2.236205E-7
         9963.275     1.712670E-7
         9972.162     1.319012E-7
         9981.057     1.342173E-7
         9989.964     1.415294E-7
          9998.88     1.161236E-7
          10007.8     9.316508E-8
         10016.72     9.311153E-8
         10025.67     1.050350E-7
          10034.6     1.096177E-7
         10043.56     1.060179E-7
         10052.52     9.637048E-8
         10061.49     7.046064E-8
         10070.47     5.691052E-8
         10079.46     5.644809E-8
         10088.45     5.717694E-8
         10097.44     8.424265E-8
         10106.46     1.005705E-7
         10115.48     8.808036E-8
          10124.5     5.773859E-8
         10133.53     3.909643E-8
         10142.58     4.594963E-8
         10151.62     5.587612E-8
         10160.68     5.459543E-8
         10169.74     6.135725E-8
         10178.81     7.421180E-8
          10187.9     7.463682E-8
         10196.99     5.783897E-8
         10206.08     5.051428E-8
         10215.19     5.580872E-8
         10224.31     6.731101E-8
         10233.43     7.809600E-8
         10242.56     7.740457E-8
         10251.69     6.188706E-8
         10260.85     6.011412E-8
           10270.     7.290932E-8
         10279.16     7.457715E-8
         10288.33     7.564215E-8
         10297.51     7.961535E-8
          10306.7     7.098742E-8
         10315.89     6.103245E-8
          10325.1     6.153907E-8
          10334.3     6.265724E-8
         10343.53     5.794146E-8
         10352.76     5.733550E-8
         10361.99     6.176704E-8
         10371.25     5.924696E-8
          10380.5     4.845751E-8
         10389.76     3.950415E-8
         10399.02     3.957713E-8
          10408.3     4.324838E-8
         10417.59     4.085835E-8
         10426.89     3.900353E-8
         10436.19     3.756523E-8
         10445.49     3.259281E-8
         10454.82     2.962397E-8
         10464.15     3.231180E-8
         10473.48     3.554064E-8
         10482.82     3.459985E-8
         10492.17     3.058027E-8
         10501.54     2.752871E-8
         10510.91     3.003611E-8
         10520.29     3.274942E-8
         10529.67     3.121890E-8
         10539.07     2.798599E-8
         10548.47     2.387219E-8
         10557.88     2.082682E-8
         10567.31     2.149508E-8
         10576.73     2.308362E-8
         10586.17     2.409159E-8
         10595.61     2.413156E-8
         10605.06     2.235471E-8
         10614.53     1.993027E-8
           10624.     1.929317E-8
         10633.48     2.128918E-8
         10642.96     2.368361E-8
         10652.45     2.266026E-8
         10661.97     2.041875E-8
         10671.48     2.157940E-8
         10680.99     2.173269E-8
         10690.53     1.925393E-8
         10700.07     1.795950E-8
         10709.61     1.849262E-8
         10719.16     1.953540E-8
         10728.72     2.202295E-8
         10738.31     2.245626E-8
         10747.88     1.990934E-8
         10757.47     1.782235E-8
         10767.08     1.751222E-8
         10776.67     1.790939E-8
         10786.29     1.755154E-8
         10795.91     1.660668E-8
         10805.54     1.657317E-8
         10815.18     1.731158E-8
         10824.83     1.748380E-8
         10834.49     1.725010E-8
         10844.17     1.734620E-8
         10853.84     1.768271E-8
         10863.52     1.819586E-8
         10873.21     1.819801E-8
         10882.91     1.688342E-8
         10892.63     1.546573E-8
         10902.35     1.429081E-8
         10912.07     1.267572E-8
         10921.81     1.208130E-8
         10931.54     1.231978E-8
         10941.31     1.176975E-8
         10951.07     1.132122E-8
         10960.83     1.356074E-8
         10970.62     8.269576E-8
         10980.39     7.616728E-7
          10990.2     2.456168E-6
           11000.     2.241973E-6
