#  Table wf2f450wsys.tab  Mon 12:21:43 02-Jun-97
#
#      WAVELENGTH      THROUGHPUT
#       angstroms                
#
            1860.     4.747628E-8
         1861.655     4.242223E-8
         1863.309     3.732382E-8
         1864.968     3.216644E-8
         1866.627     2.696156E-8
         1868.287     2.170977E-8
         1869.948     1.640740E-8
         1871.612     3.340134E-8
         1873.277     5.127887E-8
         1874.943     6.931478E-8
         1876.611     8.753364E-8
          1878.28     1.059137E-7
         1879.951     1.244310E-7
         1881.624     1.566522E-7
         1883.297     1.895287E-7
         1884.973     2.226950E-7
         1886.648     2.560890E-7
         1888.326     2.897964E-7
         1890.007     3.236929E-7
         1891.687     3.349503E-7
          1893.37     3.463068E-7
         1895.055     3.577488E-7
          1896.74     3.692700E-7
         1898.427     3.808846E-7
         1900.116     3.893421E-7
         1901.806     3.538806E-7
         1903.497     3.181125E-7
         1905.191     2.820136E-7
         1906.885     2.456270E-7
         1908.581     2.089073E-7
          1910.28     1.738705E-7
         1911.978     1.487131E-7
         1913.679     1.233239E-7
         1915.381     9.773342E-8
         1917.085     7.190977E-8
         1918.791     4.586879E-8
         1920.498     2.686719E-8
         1922.205     2.540819E-8
         1923.915     2.393427E-8
         1925.628     2.244641E-8
         1927.339     2.094829E-8
         1929.054     1.943519E-8
         1930.769     2.650672E-8
         1932.487     4.427233E-8
         1934.207     6.218721E-8
         1935.926     8.023899E-8
         1937.649     9.845110E-8
         1939.372     1.168033E-7
         1941.096     1.645470E-7
         1942.824     2.296017E-7
         1944.552     2.951160E-7
         1946.281     3.611692E-7
         1948.013     4.278097E-7
         1949.746     4.949974E-7
          1951.48     4.935345E-7
         1953.216     4.801087E-7
         1954.954     4.665569E-7
         1956.691     4.528966E-7
         1958.432     4.390924E-7
         1960.176     4.260249E-7
         1961.917     4.206757E-7
         1963.663     4.152634E-7
          1965.41     4.097946E-7
         1967.158     4.042731E-7
         1968.907     3.986944E-7
          1970.66     3.917197E-7
         1972.412     3.824699E-7
         1974.167     3.731265E-7
         1975.922     3.637077E-7
          1977.68     3.541889E-7
          1979.44     3.445756E-7
           1981.2     3.423646E-7
         1982.962     3.436290E-7
         1984.726     3.448956E-7
         1986.491     3.461628E-7
         1988.259     3.474320E-7
         1990.028     3.488200E-7
         1991.797     3.576071E-7
         1993.568     3.664567E-7
         1995.342     3.753756E-7
         1997.117     3.843581E-7
         1998.893     3.933978E-7
         2000.672     3.881072E-7
         2002.451     3.589185E-7
         2004.232     3.294169E-7
         2006.016     2.996231E-7
         2007.799     2.695522E-7
         2009.586     2.391636E-7
         2011.373     2.191549E-7
         2013.161     2.021801E-7
         2014.953     1.850142E-7
         2016.745     1.677008E-7
         2018.538     1.502160E-7
         2020.334     1.370959E-7
         2022.132     1.438202E-7
          2023.93     1.505999E-7
         2025.731     1.574435E-7
         2027.532     1.643427E-7
         2029.335     1.713022E-7
         2031.141     1.716973E-7
         2032.949     1.682033E-7
         2034.756     1.646763E-7
         2036.566     1.611113E-7
         2038.378     1.575061E-7
          2040.19     1.520575E-7
         2042.006     1.310538E-7
         2043.821     1.098667E-7
          2045.64     8.846658E-8
          2047.46     6.686682E-8
         2049.279     4.509294E-8
         2051.104     3.382183E-8
         2052.929     2.950052E-8
         2054.753     2.514413E-8
         2056.581     2.074256E-8
         2058.411     1.630029E-8
         2060.241     1.361933E-8
         2062.074     2.281668E-8
         2063.909     3.209591E-8
         2065.744     4.145113E-8
         2067.581     5.088890E-8
         2069.422     6.042095E-8
         2071.262     8.607608E-8
         2073.104     1.193395E-7
         2074.948     1.529096E-7
         2076.793     1.867475E-7
         2078.642     2.209175E-7
         2080.491     2.496064E-7
         2082.341     2.625988E-7
         2084.193     2.757047E-7
         2086.047     2.889074E-7
         2087.902     3.022160E-7
          2089.76     3.156468E-7
         2091.619     3.033726E-7
         2093.479     2.871555E-7
         2095.341     2.707886E-7
         2097.204     2.542886E-7
          2099.07     2.376374E-7
         2100.938     2.221020E-7
         2102.806     2.076946E-7
         2104.677     1.931572E-7
         2106.548     1.785102E-7
         2108.423     1.637320E-7
         2110.299     1.512932E-7
         2112.175     1.518124E-7
         2114.053     1.523327E-7
         2115.934     1.528545E-7
         2117.817     1.533774E-7
           2119.7     1.539010E-7
         2121.586     1.610871E-7
         2123.474     1.695895E-7
         2125.361     1.781412E-7
         2127.252     1.867648E-7
         2129.144     1.954480E-7
         2131.038     1.982511E-7
         2132.934     1.961547E-7
          2134.83     1.940413E-7
          2136.73     1.919086E-7
         2138.631     1.897771E-7
         2140.534     1.884302E-7
         2142.437     1.890390E-7
         2144.342     1.896494E-7
         2146.249     1.902612E-7
          2148.16     1.908753E-7
         2150.071     1.910719E-7
         2151.981     1.803600E-7
         2153.896     1.695570E-7
         2155.813     1.586762E-7
         2157.729     1.477258E-7
         2159.649     1.366887E-7
         2161.571     1.302659E-7
         2163.493     1.248528E-7
         2165.417     1.194027E-7
         2167.344     1.139092E-7
         2169.272     1.083845E-7
         2171.201     1.028080E-7
         2173.133     9.718367E-8
         2175.065     9.152836E-8
            2177.     8.583336E-8
         2178.936     8.010649E-8
         2180.875     7.433264E-8
         2182.815     6.851555E-8
         2184.755     6.267260E-8
           2186.7     5.678523E-8
         2188.645     5.086807E-8
         2190.592     4.768296E-8
         2192.539     5.082564E-8
          2194.49     5.398597E-8
         2196.441     5.716046E-8
         2198.396     6.035273E-8
         2200.352     6.362435E-8
         2202.309     6.722181E-8
         2204.267     7.086701E-8
         2206.229     7.457026E-8
         2208.191     7.832077E-8
         2210.156     8.161608E-8
         2212.121     7.897316E-8
         2214.088     7.628125E-8
         2216.059     7.353704E-8
         2218.029     7.074706E-8
         2220.002     6.790445E-8
         2221.977     6.162777E-8
         2223.953     5.525509E-8
         2225.931     4.877885E-8
         2227.912     4.220249E-8
         2229.894     3.552559E-8
         2231.876     3.207034E-8
         2233.862     2.874757E-8
         2235.849     2.537509E-8
         2237.837     2.195478E-8
         2239.828     1.848180E-8
          2241.82     2.827085E-8
         2243.814     3.946504E-8
         2245.811     5.081115E-8
         2247.809     6.230704E-8
         2249.808     7.394902E-8
         2251.808     8.231899E-8
         2253.812     9.043347E-8
         2255.817     9.864753E-8
         2257.823     1.069585E-7
         2259.831     1.153717E-7
         2261.841     1.095495E-7
         2263.854     1.023189E-7
         2265.865     9.499954E-8
         2267.883     8.756770E-8
         2269.901     8.004172E-8
         2271.918     7.241738E-8
         2273.939     6.468502E-8
         2275.962     5.685484E-8
         2277.988     4.892551E-8
         2280.013     4.092943E-8
         2282.042     3.697670E-8
         2284.071     3.297767E-8
         2286.103     2.892684E-8
         2288.136     2.482892E-8
         2290.172     2.104074E-8
         2292.209     2.115210E-8
         2294.248     2.126358E-8
         2296.288     2.137629E-8
         2298.331     2.149570E-8
         2300.376     2.161514E-8
         2302.421     2.173373E-8
          2304.47     2.185268E-8
         2306.519     2.197181E-8
          2308.57     2.209122E-8
         2310.625     2.221055E-8
         2312.681     2.232895E-8
         2314.736     2.244746E-8
         2316.796     2.256638E-8
         2318.857     2.268555E-8
         2320.919     2.489980E-8
         2322.983     2.975920E-8
         2325.049     3.467454E-8
         2327.118     3.964436E-8
         2329.187     4.466413E-8
          2331.26     4.973959E-8
         2333.334     5.486703E-8
         2335.409     6.004483E-8
         2337.485     6.527689E-8
         2339.565     7.056646E-8
         2341.648     7.590915E-8
         2343.729     8.129556E-8
         2345.814     8.674206E-8
         2347.901     9.224319E-8
         2349.989     9.779595E-8
          2352.08     1.085093E-7
         2354.171     1.193491E-7
         2356.266     1.303049E-7
         2358.361     1.413618E-7
         2360.458     1.502289E-7
          2362.56     1.509208E-7
         2364.661     1.516132E-7
         2366.764     1.523072E-7
         2368.869     1.530021E-7
         2370.977     1.536927E-7
         2373.085     1.543770E-7
         2375.196     1.550629E-7
          2377.31     1.557501E-7
         2379.422     1.564377E-7
         2381.539     1.611488E-7
          2383.66     1.674210E-7
         2385.778     1.737352E-7
         2387.901     1.801120E-7
         2390.024     1.864751E-7
          2392.15     1.872541E-7
         2394.279     1.880344E-7
         2396.409     1.888161E-7
          2398.54     1.895987E-7
         2400.673     1.867185E-7
         2402.809     1.758061E-7
         2404.947     1.647906E-7
         2407.086     1.536727E-7
         2409.225     1.424636E-7
         2411.369     1.349287E-7
         2413.514     1.294795E-7
         2415.662     1.239793E-7
          2417.81     1.184315E-7
         2419.961     1.128291E-7
         2422.113     9.521712E-8
         2424.267     7.723089E-8
         2426.425     5.906949E-8
         2428.584     4.076307E-8
         2430.742     2.658436E-8
         2432.905     2.044949E-8
         2435.069     1.426265E-8
         2437.235     8.028565E-9
         2439.403     1.739354E-9
         2441.572              0.
         2443.745              0.
         2445.917              0.
         2448.094              0.
         2450.272              0.
         2452.451              0.
         2454.631              0.
         2456.815              0.
            2459.              0.
         2461.188     3.585389E-9
         2463.378     1.023114E-8
         2465.569     1.692767E-8
          2467.76     2.366834E-8
         2469.958     3.047290E-8
         2472.154     3.732010E-8
         2474.353     4.422289E-8
         2476.553     5.117377E-8
         2478.756     5.817678E-8
         2480.961     6.822611E-8
         2483.167     8.223116E-8
         2485.378     9.635940E-8
         2487.588     1.105737E-7
         2489.801     1.249010E-7
         2492.015     1.265744E-7
         2494.231     1.269933E-7
         2496.451     1.274134E-7
          2498.67     1.278334E-7
         2500.893     1.282546E-7
         2503.118     1.286763E-7
         2505.345     1.290988E-7
         2507.573     1.295217E-7
         2509.803     1.299452E-7
         2512.036     1.370074E-7
          2514.27     1.447603E-7
         2516.507     1.525733E-7
         2518.746     1.604414E-7
         2520.985     1.683613E-7
         2523.228     1.763418E-7
         2525.472     1.843738E-7
         2527.719     1.924671E-7
         2529.967     2.006113E-7
         2532.218     1.939367E-7
         2534.471     1.869843E-7
         2536.723     1.799851E-7
          2538.98     1.726483E-7
          2541.24     1.652388E-7
           2543.5     1.578103E-7
         2545.762     1.503511E-7
         2548.027     1.428574E-7
         2550.292     1.363363E-7
         2552.562     1.365339E-7
         2554.833     1.367306E-7
         2557.106     1.369264E-7
          2559.38     1.371211E-7
         2561.655     1.316355E-7
         2563.935     1.239886E-7
         2566.216     1.163117E-7
         2568.498     1.086098E-7
         2570.781     1.035771E-7
         2573.069     1.037266E-7
         2575.358     1.038754E-7
         2577.648     1.040234E-7
         2579.942     1.041708E-7
         2582.236     1.043224E-7
         2584.533     1.044735E-7
         2586.833     1.046238E-7
         2589.135     1.047735E-7
         2591.435     1.049253E-7
         2593.741     1.050785E-7
         2596.049     1.052309E-7
         2598.357     1.053825E-7
         2600.669     1.055350E-7
         2602.981     1.056907E-7
         2605.297     1.058457E-7
         2607.614     1.059998E-7
         2609.936     1.061533E-7
         2612.256     9.831607E-8
         2614.579     9.021878E-8
         2616.906     8.208347E-8
         2619.232     7.392141E-8
         2621.564     7.129555E-8
         2623.894     7.140227E-8
         2626.229     7.150860E-8
         2628.565     7.161439E-8
         2630.904     7.172114E-8
         2633.243     7.182966E-8
         2635.585     7.193764E-8
          2637.93     7.204514E-8
         2640.275     7.314581E-8
         2642.625     8.174389E-8
         2644.976     9.037485E-8
         2647.328     9.903218E-8
         2649.683     1.077274E-7
         2652.039     1.090422E-7
         2654.399     1.092069E-7
         2656.759     1.093705E-7
         2659.123     1.095333E-7
         2661.489     1.042542E-7
         2663.854     9.574953E-8
         2666.224     8.720030E-8
         2668.598     7.861106E-8
         2670.971     6.999961E-8
         2673.346     6.135466E-8
         2675.724     5.266971E-8
         2678.104     4.395654E-8
         2680.486     3.700357E-8
          2682.87     3.705882E-8
         2685.258     3.711382E-8
         2687.645     3.716841E-8
         2690.036     3.735635E-8
         2692.429     4.633312E-8
         2694.823     5.533930E-8
         2697.221     6.438388E-8
         2699.619     7.345560E-8
         2702.021     8.267801E-8
         2704.424     9.197528E-8
         2706.829     1.013357E-7
         2709.239     1.107697E-7
         2711.648     1.077358E-7
         2714.059     9.887048E-8
         2716.474     8.993640E-8
         2718.891     8.093877E-8
         2721.308     7.691540E-8
         2723.729     7.714672E-8
         2726.153     7.737822E-8
         2728.577     7.760980E-8
         2731.003     7.784187E-8
         2733.433     7.807467E-8
         2735.865     7.830768E-8
         2738.298     7.854072E-8
         2740.733     8.166008E-8
         2743.171     9.153744E-8
         2745.612     1.014800E-7
         2748.055     1.114889E-7
         2750.499     1.215009E-7
         2752.946     1.313331E-7
         2755.394     1.411816E-7
         2757.845     1.510574E-7
         2760.299     1.597597E-7
         2762.752     1.598596E-7
          2765.21     1.599597E-7
          2767.67     1.600599E-7
         2770.131     1.601601E-7
         2772.596     1.602594E-7
         2775.063     1.603588E-7
         2777.531     1.604582E-7
            2780.     1.605568E-7
         2782.475     1.507135E-7
         2784.949     1.408603E-7
         2787.427     1.309814E-7
         2789.906     1.210877E-7
         2792.386     1.111708E-7
         2794.873     1.012207E-7
         2797.356     9.126879E-8
         2799.845     8.128367E-8
         2802.336     7.127692E-8
          2804.83     6.125089E-8
         2807.324     5.120959E-8
         2809.822     4.114216E-8
          2812.32     4.044269E-8
         2814.821     4.046454E-8
         2817.325     4.048641E-8
         2819.833     4.050832E-8
         2822.339     3.104907E-8
          2824.85     2.088203E-8
         2827.362     1.070148E-8
         2829.878    4.965031E-10
         2832.396     9.729836E-9
         2834.914     1.996847E-8
         2837.437     3.023235E-8
         2839.959     4.050955E-8
         2842.485     6.091751E-8
         2845.015     8.155169E-8
         2847.545     1.021996E-7
         2850.077     1.219418E-7
         2852.613     1.116596E-7
         2855.151     1.013588E-7
          2857.69     9.104537E-8
         2860.233     8.070625E-8
         2862.777     7.034841E-8
         2865.323     5.997725E-8
         2867.871     4.958778E-8
         2870.423     4.262990E-8
         2872.976     5.309752E-8
         2875.531     6.357804E-8
         2878.088     7.407650E-8
         2880.649     8.725747E-8
         2883.212     1.083045E-7
         2885.775     1.293752E-7
         2888.343     1.504955E-7
         2890.913     1.679041E-7
         2893.483     1.785245E-7
         2896.058     1.891694E-7
         2898.633     1.998258E-7
          2901.21     2.003820E-7
         2903.792     1.895185E-7
         2906.375     1.786756E-7
         2908.961     1.678515E-7
         2911.546     1.633746E-7
         2914.137     1.631435E-7
          2916.73     1.629120E-7
         2919.323     1.626801E-7
         2921.922     1.702531E-7
         2924.519     1.805377E-7
         2927.121     1.908126E-7
         2929.725     2.010652E-7
         2932.332     2.018774E-7
         2934.941     2.015779E-7
         2937.549     2.012782E-7
         2940.163     2.009775E-7
         2942.779     2.006765E-7
         2945.397     2.003748E-7
         2948.016     2.000727E-7
         2950.637     1.946750E-7
         2953.263     1.734274E-7
         2955.889     1.522404E-7
         2958.519     1.310865E-7
         2961.153     1.191195E-7
         2963.784     1.189336E-7
         2966.421     1.187472E-7
         2969.061     1.185604E-7
         2971.701     1.250828E-7
         2974.343     1.352926E-7
          2976.99     1.454849E-7
         2979.638     1.556519E-7
         2982.286     1.388927E-7
         2984.939     1.178958E-7
         2987.597     9.693382E-8
         2990.253     7.703614E-8
         2992.914     6.654642E-8
         2995.575     5.608794E-8
         2998.239     4.565508E-8
         3000.907     3.875427E-8
         3003.575     3.868914E-8
         3006.249     3.862380E-8
         3008.921     3.855845E-8
         3011.598     4.464275E-8
         3014.277     5.486391E-8
         3016.958     6.505160E-8
         3019.642     7.521962E-8
         3022.327     6.756304E-8
         3025.016     5.718369E-8
         3027.706     4.683627E-8
         3030.398     3.802952E-8
         3033.096     3.796231E-8
         3035.793     3.789505E-8
         3038.494     3.782761E-8
         3041.198     3.776006E-8
           3043.9     3.769245E-8
         3046.608     3.762464E-8
         3049.319     3.755669E-8
         3052.032     4.510690E-8
         3054.748     5.518526E-8
         3057.462     6.522361E-8
         3060.183     7.524618E-8
         3062.905     8.523923E-8
         3065.629     9.519818E-8
         3068.356     1.051336E-7
         3071.085     1.070054E-7
         3073.817     9.671121E-8
         3076.551     8.645293E-8
         3079.288     7.621693E-8
         3082.028     7.345638E-8
         3084.768     7.331614E-8
         3087.513     7.317551E-8
         3090.258     7.209238E-8
         3093.006     6.193741E-8
         3095.758     5.180676E-8
         3098.512     4.170598E-8
         3101.269     3.629077E-8
         3104.025     3.634218E-8
         3106.787     3.639373E-8
         3109.551     3.644536E-8
         3112.316     3.649705E-8
         3115.087     3.654888E-8
         3117.855     3.660069E-8
         3120.631     3.665269E-8
         3123.406     3.670472E-8
         3126.185     3.675685E-8
         3128.967     3.680908E-8
         3131.749     3.686117E-8
         3134.533     3.691323E-8
         3137.322     3.696540E-8
         3140.114     3.743883E-8
         3142.906     4.784301E-8
         3145.701     5.828580E-8
           3148.5     6.877370E-8
         3151.301     7.445752E-8
         3154.103     7.456288E-8
         3156.911     7.466855E-8
         3159.716     7.477419E-8
         3162.528     7.488021E-8
         3165.342     7.498640E-8
         3168.158     7.509276E-8
         3170.975     7.886441E-8
         3173.794     8.959198E-8
         3176.618     1.003663E-7
         3179.443     1.111735E-7
          3182.27     1.134369E-7
         3185.103     1.135983E-7
         3187.936     1.137597E-7
         3190.772     1.139212E-7
         3193.609     1.140822E-7
         3196.451     1.142436E-7
         3199.293     1.144052E-7
         3202.138     9.823973E-8
         3204.989     7.657398E-8
          3207.84     5.484101E-8
         3210.691     3.570269E-8
         3213.547     2.478217E-8
         3216.407     1.382008E-8
         3219.267     2.824755E-9
         3222.129     8.212282E-9
         3224.996     1.929764E-8
         3227.865     3.042392E-8
         3230.734     3.873521E-8
         3233.612     3.879036E-8
         3236.487     3.884550E-8
         3239.365     3.890072E-8
         3242.247     4.771113E-8
          3245.13     5.902694E-8
         3248.016     7.038464E-8
         3250.906     7.470444E-8
         3253.798     6.347885E-8
         3256.693     5.221058E-8
         3259.587     4.091379E-8
         3262.489     3.934784E-8
          3265.39     3.940404E-8
         3268.294     3.946032E-8
         3271.202     4.426551E-8
          3274.11     5.584006E-8
         3277.024     6.746631E-8
         3279.939     7.913469E-8
         3282.858     7.948982E-8
         3285.779     7.960384E-8
         3288.698     7.971791E-8
         3291.625     7.983276E-8
         3294.553     7.994818E-8
         3297.481     8.006364E-8
         3300.415     8.017945E-8
         3303.351     8.029558E-8
          3306.29     8.041189E-8
         3309.229     8.052825E-8
         3312.175     7.187676E-8
         3315.122     6.008071E-8
         3318.069     4.824726E-8
         3321.022     3.636062E-8
         3323.975     2.443737E-8
         3326.932     1.246056E-8
          3329.89    4.458800E-10
         3332.853     1.162281E-8
         3335.819     2.373687E-8
         3338.785     3.588941E-8
         3341.754     4.091459E-8
         3344.727     4.097474E-8
         3347.703     4.103500E-8
         3350.681     4.109537E-8
         3353.659     4.115585E-8
         3356.643     4.121650E-8
         3359.629     4.127724E-8
         3362.617     4.133815E-8
          3365.61     4.139924E-8
         3368.601     4.146032E-8
         3371.598     4.815863E-8
         3374.598     6.070549E-8
         3377.601     7.329978E-8
         3380.604     8.341535E-8
          3383.61     8.353989E-8
         3386.621     8.366472E-8
         3389.632     8.378967E-8
         3392.648     1.061362E-7
         3395.667     1.316648E-7
         3398.686     1.572781E-7
          3401.71     1.757987E-7
         3404.737     1.888401E-7
         3407.764     2.019234E-7
         3410.794     2.083335E-7
         3413.829     1.957810E-7
         3416.866     1.831787E-7
         3419.906     1.705254E-7
         3422.946     1.829346E-7
         3425.991     1.962066E-7
         3429.039     2.095314E-7
         3432.088     2.229014E-7
         3435.142     2.363332E-7
         3438.197     2.498088E-7
         3441.256     2.633460E-7
         3444.316     2.769293E-7
         3447.382     2.905819E-7
         3450.448     3.042720E-7
         3453.516     3.180192E-7
         3456.588     3.318291E-7
         3459.662     3.456842E-7
          3462.74     3.357864E-7
         3465.819     3.229086E-7
         3468.903     3.099699E-7
         3471.989     3.230404E-7
         3475.074     3.505373E-7
         3478.168     3.781986E-7
         3481.261     4.668069E-7
         3484.359     6.445006E-7
         3487.459     8.229143E-7
         3490.558     1.048566E-6
         3493.667     1.489631E-6
         3496.772     1.931375E-6
         3499.883     2.375502E-6
         3502.997     3.300223E-6
          3506.11     4.246224E-6
          3509.23     5.197352E-6
         3512.352     7.085734E-6
         3515.477     9.288313E-6
         3518.603     1.149874E-5
         3521.732     1.498293E-5
         3524.867     1.951026E-5
         3528.001     2.405057E-5
         3531.138     3.006552E-5
          3534.28     3.867387E-5
         3537.423     4.731272E-5
          3540.57     5.719611E-5
          3543.72     7.256814E-5
         3546.874     8.800523E-5
         3550.025     1.035671E-4
         3553.184     1.290919E-4
         3556.345     1.547235E-4
         3559.508     1.804461E-4
         3562.673     2.176499E-4
         3565.843     2.571314E-4
         3569.015     2.967848E-4
         3572.191     3.480830E-4
         3575.367     4.047443E-4
         3578.548     4.616786E-4
          3581.73     5.276707E-4
         3584.915     6.013998E-4
         3588.107     6.755255E-4
         3591.297     7.485527E-4
         3594.491     8.199394E-4
         3597.689     8.916712E-4
          3600.89     9.540939E-4
         3604.092     9.917024E-4
         3607.296     0.001029468
         3610.506     0.001067419
         3613.719     0.001105522
          3616.93     0.001143736
         3620.152      0.00118221
         3623.369     0.001220776
         3626.593     0.001259553
          3629.82     0.001298496
         3633.047     0.001337568
         3636.278     0.001376805
         3639.513     0.001416231
         3642.751     0.001549174
         3645.992     0.001708973
         3649.232     0.001869433
         3652.481     0.002037963
         3655.729     0.002212818
         3658.979     0.002419004
         3662.235     0.002634767
         3665.493     0.002864292
         3668.753     0.003111134
         3672.015     0.003361654
         3675.284     0.003633457
         3678.554     0.003909981
         3681.823     0.004208026
         3685.099     0.004519673
         3688.378     0.004835765
         3691.656     0.005177596
          3694.94     0.005532702
         3698.228      0.00589772
         3701.518     0.006264109
         3704.807     0.006643771
         3708.106     0.007031257
         3711.405      0.00742736
         3714.705     0.007814937
          3718.01     0.008211083
         3721.316     0.008619611
         3724.625     0.009017917
         3727.939     0.009415277
         3731.256     0.009814956
         3734.576      0.01022101
         3737.895      0.01062872
         3741.223      0.01101999
         3744.549      0.01140452
         3747.881      0.01178661
         3751.216      0.01215829
         3754.549      0.01252818
          3757.89       0.0129054
         3761.233      0.01326851
          3764.58       0.0136299
         3767.927      0.01397658
         3771.278      0.01432866
         3774.633      0.01470039
         3777.991      0.01505598
         3781.351      0.01542203
         3784.715      0.01576946
         3788.081       0.0161403
         3791.451       0.0165094
         3794.824      0.01687994
         3798.199      0.01725428
         3801.578      0.01764717
         3804.958      0.01804904
         3808.344      0.01842362
         3811.732      0.01882936
         3815.122      0.01923366
         3818.514       0.0196469
         3821.912      0.02009347
         3825.312      0.02055259
         3828.714      0.02099101
          3832.12      0.02145089
         3835.528      0.02191867
          3838.94      0.02237963
         3842.356      0.02284932
         3845.772      0.02334197
         3849.192      0.02382737
         3852.617      0.02432901
         3856.045      0.02483548
         3859.476       0.0253593
         3862.905      0.02587119
         3866.342      0.02637694
         3869.782      0.02686014
         3873.223      0.02736449
         3876.672      0.02787591
         3880.117      0.02835578
         3883.569      0.02884888
         3887.024      0.02932032
          3890.48      0.02980197
         3893.942      0.03026466
         3897.405      0.03072114
         3900.872      0.03115467
         3904.343      0.03161072
         3907.813      0.03202389
         3911.292      0.03241063
          3914.77      0.03278766
         3918.253      0.03314974
         3921.737      0.03355473
         3925.224      0.03390684
         3928.716      0.03422001
         3932.212      0.03456925
         3935.711      0.03486771
         3939.212      0.03517422
         3942.713      0.03549017
         3946.221      0.03575914
         3949.732      0.03601902
         3953.244       0.0363197
         3956.761      0.03655457
          3960.28      0.03678887
         3963.803      0.03705925
         3967.328      0.03729001
         3970.858       0.0375516
         3974.391      0.03774817
         3977.925      0.03799538
         3981.464       0.0382547
         3985.005      0.03849697
         3988.548      0.03871551
         3992.097       0.0389504
         3995.649      0.03921505
         3999.204       0.0394905
         4002.758      0.03970805
         4006.319      0.03987797
         4009.884      0.04006898
         4013.451      0.04024975
         4017.022      0.04042336
         4020.592      0.04064876
         4024.169      0.04082466
          4027.75      0.04102634
         4031.333      0.04120948
          4034.92      0.04144244
         4038.506      0.04164211
         4042.099      0.04188011
         4045.696       0.0421094
         4049.295      0.04226716
         4052.898       0.0424748
           4056.5      0.04273586
         4060.109      0.04292059
         4063.721      0.04311201
         4067.337      0.04332915
         4070.954      0.04353122
         4074.573      0.04374665
         4078.199      0.04391846
         4081.827      0.04405816
         4085.457      0.04426505
         4089.092      0.04447843
         4092.728       0.0446167
         4096.369      0.04478287
         4100.012       0.0449092
          4103.66      0.04503412
         4107.309      0.04517284
         4110.963      0.04529374
         4114.621       0.0454513
         4118.279      0.04553894
         4121.941      0.04559481
         4125.609      0.04566936
          4129.28      0.04574289
         4132.954      0.04583628
         4136.626      0.04586383
         4140.307      0.04590302
         4143.991      0.04593593
         4147.675      0.04597835
         4151.368      0.04602064
          4155.06      0.04598928
         4158.754      0.04596445
         4162.454        0.045977
         4166.156      0.04597494
         4169.862      0.04597053
          4173.57      0.04595412
         4177.284      0.04590583
            4181.      0.04589872
         4184.716      0.04585348
         4188.441      0.04584399
         4192.166      0.04583514
         4195.896      0.04582518
         4199.629      0.04575323
         4203.361      0.04575977
         4207.101      0.04584405
         4210.844      0.04588692
          4214.59       0.0459379
         4218.338       0.0459805
         4222.089      0.04602695
         4225.846      0.04610411
         4229.605      0.04620033
         4233.366      0.04622975
         4237.133      0.04632571
           4240.9      0.04641456
         4244.674        0.046495
         4248.448      0.04659462
         4252.229      0.04671717
         4256.009      0.04684076
         4259.796      0.04695372
         4263.586      0.04712871
         4267.377       0.0472938
         4271.174      0.04740743
         4274.972      0.04759377
         4278.776      0.04775739
         4282.583      0.04791588
         4286.388      0.04808845
         4290.205       0.0482868
          4294.02      0.04853181
          4297.84      0.04870092
         4301.664      0.04892406
         4305.489      0.04910975
         4309.317      0.04930447
         4313.151      0.04950307
         4316.989      0.04971622
          4320.83      0.04990571
          4324.67      0.05011307
         4328.518      0.05028078
         4332.369      0.05049437
         4336.224       0.0506833
         4340.082      0.05084528
         4343.938      0.05105716
         4347.803      0.05126922
         4351.672      0.05142941
         4355.544      0.05160523
         4359.417      0.05172405
         4363.293       0.0518811
         4367.175      0.05197527
         4371.061      0.05209146
         4374.948       0.0521803
          4378.84      0.05221632
         4382.734      0.05226064
         4386.633      0.05231443
         4390.534       0.0523595
          4394.44      0.05233576
         4398.348      0.05232512
         4402.261      0.05232346
         4406.178      0.05226597
         4410.099      0.05225428
         4414.018      0.05219121
         4417.945      0.05215431
         4421.875       0.0520842
          4425.81       0.0519725
         4429.745      0.05185712
         4433.684      0.05175968
         4437.629       0.0516111
         4441.575      0.05151053
         4445.529      0.05141164
         4449.482      0.05130751
         4453.438      0.05114908
         4457.401      0.05100903
         4461.364      0.05091725
         4465.334      0.05075336
         4469.305      0.05061744
         4473.281      0.05054053
         4477.261      0.05044391
          4481.24      0.05035221
         4485.227      0.05027184
         4489.218      0.05018188
         4493.212      0.05012064
         4497.207      0.05004742
         4501.206      0.05000938
         4505.213      0.05013273
         4509.219      0.05029594
         4513.231      0.05048676
         4517.247      0.05072196
         4521.261      0.05092601
         4525.284       0.0511015
         4529.311      0.05137241
          4533.34      0.05158438
         4537.371      0.05178914
         4541.408      0.05204078
         4545.447      0.05241128
         4549.491      0.05267998
         4553.536      0.05304163
         4557.585      0.05339693
          4561.64      0.05368349
         4565.699       0.0540866
         4569.761      0.05444048
         4573.827      0.05482524
         4577.892      0.05519966
         4581.965      0.05569204
         4586.042      0.05605616
          4590.12      0.05645298
         4594.204      0.05690867
         4598.289       0.0573388
          4602.38      0.05778914
         4606.472       0.0582064
         4610.568      0.05869017
          4614.67      0.05908156
         4618.776      0.05946489
         4622.886      0.05992284
         4626.999      0.06035375
         4631.113      0.06070633
         4635.231      0.06114357
         4639.355      0.06144531
         4643.483      0.06180521
         4647.612       0.0620782
         4651.748      0.06240816
         4655.884      0.06275787
         4660.026      0.06303019
          4664.17      0.06331587
         4668.317      0.06350319
         4672.471      0.06367325
         4676.628      0.06382751
         4680.789      0.06396011
         4684.954      0.06404939
         4689.117      0.06419966
         4693.289      0.06424871
         4697.465      0.06425782
         4701.645      0.06432489
         4705.825      0.06431344
         4710.012      0.06430696
           4714.2      0.06422251
         4718.392      0.06415235
          4722.59      0.06402777
          4726.79       0.0639593
         4730.995      0.06387901
         4735.205      0.06380148
         4739.417      0.06369548
         4743.629      0.06360232
          4747.85       0.0635005
         4752.074      0.06342436
         4756.302      0.06326782
         4760.532      0.06315371
         4764.767      0.06302828
         4769.004      0.06293919
         4773.247       0.0628866
         4777.492      0.06284978
         4781.742      0.06280813
         4785.994      0.06275552
         4790.252      0.06280187
         4794.515      0.06279277
          4798.78      0.06283665
         4803.045      0.06285086
         4807.318      0.06289139
         4811.596      0.06294052
         4815.877      0.06311695
         4820.162      0.06317468
         4824.448       0.0633145
         4828.737      0.06347299
         4833.034      0.06363893
         4837.332      0.06385908
         4841.635      0.06405732
          4845.94      0.06428339
         4850.252      0.06450253
         4854.567      0.06473475
         4858.881      0.06500442
         4863.205      0.06524102
         4867.532       0.0655525
         4871.862      0.06587625
         4876.197      0.06618467
         4880.533      0.06648976
         4884.875      0.06681231
         4889.219      0.06711774
         4893.566      0.06748419
          4897.92      0.06778849
         4902.276      0.06816728
         4906.638      0.06850831
         4911.003      0.06882411
         4915.373        0.069194
         4919.741      0.06953319
         4924.118       0.0699022
         4928.499      0.07023462
         4932.884      0.07056891
         4937.273       0.0708948
         4941.664      0.07118911
         4946.058      0.07156031
         4950.458      0.07191508
          4954.86      0.07232118
         4959.269      0.07262961
         4963.679      0.07305211
         4968.095      0.07340956
         4972.515      0.07387079
         4976.934      0.07427801
         4981.362      0.07470298
         4985.794      0.07520689
          4990.23      0.07570302
          4994.67      0.07626531
         4999.112      0.07687031
          5003.56      0.07747033
         5008.009      0.07816465
         5012.464      0.07889503
         5016.921      0.07963699
         5021.385      0.08043166
          5025.85      0.08119056
         5030.322      0.08203442
         5034.795      0.08290799
         5039.272      0.08364876
         5043.755      0.08449557
         5048.243      0.08522212
         5052.735      0.08589839
          5057.23      0.08637771
         5061.727       0.0867984
         5066.228      0.08692355
         5070.736      0.08689296
         5075.248      0.08651876
          5079.76      0.08586168
          5084.28      0.08483603
         5088.801      0.08335353
         5093.329      0.08149317
         5097.857      0.07915664
         5102.391        0.076414
          5106.93      0.07333029
         5111.474      0.06993771
         5116.022      0.06620834
         5120.574      0.06226358
         5125.124      0.05823219
         5129.684      0.05409635
         5134.249       0.0499747
         5138.813        0.046013
         5143.386      0.04218809
         5147.959      0.03852308
          5152.54      0.03509921
         5157.122      0.03188021
         5161.707      0.02890439
           5166.3      0.02623458
         5170.896       0.0237665
         5175.497      0.02149499
         5180.102      0.01942209
         5184.708      0.01755931
         5189.318      0.01588169
         5193.936      0.01436173
         5198.557      0.01300486
         5203.179      0.01178442
         5207.809      0.01068308
         5212.439     0.009707667
         5217.077     0.008825015
         5221.716     0.008031107
         5226.359     0.007322163
         5231.009     0.006687793
         5235.664      0.00610071
         5240.322     0.005582771
         5244.984     0.005103938
         5249.646     0.004688252
         5254.316     0.004308015
         5258.991     0.003959548
          5263.67     0.003644968
         5268.351     0.003261638
         5273.038     0.002537796
         5277.727     0.002354994
          5282.42     0.002188482
          5287.12     0.002037285
         5291.821     0.001895692
         5296.529     0.001769932
         5301.242     0.001649159
         5305.959     0.001544191
         5310.674      0.00144117
         5315.399     0.001352911
         5320.128     0.001264389
         5324.862      0.00118979
         5329.597     0.001114678
         5334.339     0.001050158
         5339.082     9.862451E-4
         5343.833     9.303243E-4
         5348.584     8.760705E-4
          5353.34     8.275302E-4
         5358.103     7.812047E-4
          5362.87     7.387174E-4
         5367.642     6.986824E-4
         5372.417     6.612330E-4
         5377.192     6.263605E-4
         5381.976     5.933258E-4
         5386.765     5.630920E-4
         5391.558     5.340783E-4
         5396.354     5.078631E-4
         5401.153     4.823784E-4
         5405.956     4.595966E-4
         5410.766     4.371273E-4
         5415.577     4.171330E-4
         5420.396     3.972017E-4
         5425.215     3.796393E-4
         5430.042     3.619601E-4
         5434.874     3.463453E-4
         5439.703     3.306385E-4
         5444.543     3.166662E-4
         5449.387     3.027159E-4
         5454.236     2.902003E-4
         5459.089     2.778181E-4
         5463.943     2.665487E-4
         5468.804     2.554691E-4
         5473.667     2.453366E-4
         5478.534     2.354661E-4
         5483.409     2.263018E-4
         5488.285     2.174158E-4
         5493.168     2.091522E-4
         5498.055     2.012062E-4
         5502.947     1.937122E-4
         5507.837     1.865142E-4
         5512.738     1.797567E-4
         5517.643     1.733484E-4
         5522.552     1.672298E-4
         5527.466     1.613799E-4
         5532.381     1.557746E-4
           5537.3     1.504317E-4
         5542.227     1.453131E-4
         5547.158     1.404812E-4
          5552.09     1.358431E-4
         5557.027     1.314780E-4
         5561.972     1.272385E-4
          5566.92     1.232086E-4
         5571.871     1.193053E-4
         5576.825     1.156251E-4
         5581.787     1.120621E-4
         5586.753     1.087321E-4
         5591.724     1.054738E-4
         5596.699     1.023709E-4
         5601.676     9.930752E-5
         5606.657     9.634230E-5
         5611.645     9.347533E-5
         5616.635     9.082642E-5
         5621.632     8.823141E-5
         5626.631     8.576489E-5
         5631.637     8.335405E-5
         5636.645     8.107351E-5
         5641.657     7.885237E-5
         5646.676     7.675945E-5
         5651.701     7.472822E-5
         5656.729     7.282665E-5
         5661.762     7.099032E-5
         5666.796     6.928359E-5
         5671.835     6.774737E-5
         5676.882     6.651473E-5
         5681.933     6.546497E-5
         5686.985     6.471499E-5
         5692.045     6.302226E-5
         5697.106     5.993660E-5
         5702.175     5.759650E-5
         5707.246     5.626024E-5
         5712.321     5.498360E-5
         5717.403     5.377869E-5
          5722.49     5.256881E-5
         5727.582     5.135432E-5
         5732.678     5.021038E-5
         5737.772     4.913160E-5
         5742.877     4.808746E-5
         5747.987     4.707037E-5
         5753.101     4.609368E-5
         5758.217     4.514257E-5
         5763.337     4.423514E-5
         5768.465     4.334899E-5
         5773.594     4.251064E-5
         5778.731     4.169015E-5
         5783.869     4.086750E-5
         5789.016     4.004122E-5
         5794.166     3.927095E-5
         5799.322     3.851159E-5
         5804.481     3.781421E-5
          5809.64     3.712476E-5
         5814.809     3.650041E-5
         5819.982     3.587878E-5
         5825.157     3.518130E-5
          5830.34     3.449019E-5
         5835.524     3.393651E-5
         5840.713     3.338075E-5
          5845.91     3.282293E-5
         5851.108     3.226317E-5
         5856.314     3.170045E-5
         5861.525     3.115797E-5
          5866.74     3.066752E-5
          5871.96     3.020379E-5
         5877.178     2.978643E-5
         5882.407     2.933170E-5
         5887.641     2.883376E-5
         5892.879     2.837620E-5
          5898.12     2.795181E-5
         5903.367     2.752553E-5
         5908.617     2.709782E-5
         5913.874     2.672572E-5
         5919.132     2.637291E-5
         5924.396     2.595332E-5
         5929.667     2.551892E-5
         5934.942     2.522986E-5
         5940.223     2.494629E-5
         5945.508     2.458627E-5
         5950.792     2.422528E-5
         5956.086     2.386245E-5
         5961.386     2.351901E-5
          5966.69     2.323308E-5
         5971.996     2.294605E-5
         5977.306     2.265767E-5
         5982.624     2.236814E-5
         5987.944     2.207783E-5
         5993.271     2.178619E-5
         5998.601     2.149359E-5
         6003.938     2.124207E-5
          6009.28     2.100520E-5
         6014.626     2.069843E-5
         6019.971     2.038079E-5
         6025.328     2.014272E-5
         6030.688     1.990475E-5
         6036.054     1.966640E-5
         6041.425     1.942771E-5
         6046.797     1.918879E-5
         6052.173     1.894968E-5
         6057.559     1.871022E-5
         6062.945     1.847040E-5
         6068.339     1.822993E-5
         6073.735     1.804600E-5
         6079.139     1.788697E-5
         6084.548     1.765881E-5
         6089.955     1.741756E-5
         6095.374     1.717566E-5
         6100.797     1.694548E-5
         6106.225     1.678514E-5
         6111.658     1.662456E-5
         6117.092     1.646383E-5
         6122.535     1.626431E-5
         6127.979     1.602053E-5
         6133.432     1.582828E-5
         6138.885     1.566657E-5
         6144.344     1.550482E-5
         6149.811     1.534279E-5
         6155.283     1.518024E-5
         6160.759     1.501746E-5
         6166.234     1.485466E-5
          6171.72     1.469141E-5
         6177.211     1.452793E-5
         6182.708     1.436421E-5
         6188.208     1.420024E-5
         6193.711     1.409260E-5
         6199.218     1.401210E-5
         6204.734     1.385934E-5
         6210.251     1.369457E-5
         6215.777     1.352924E-5
         6221.304     1.336384E-5
         6226.839     1.319826E-5
         6232.379     1.306863E-5
         6237.921     1.298694E-5
         6243.468     1.285239E-5
         6249.023     1.268594E-5
         6254.583     1.258895E-5
         6260.148     1.250446E-5
         6265.718     1.233691E-5
          6271.29     1.218895E-5
         6276.866     1.210637E-5
         6282.451     1.202354E-5
         6288.037     1.194054E-5
         6293.632     1.180189E-5
         6299.228     1.163316E-5
         6304.833     1.153793E-5
         6310.439     1.145441E-5
          6316.05     1.137062E-5
         6321.669     1.126113E-5
         6327.294     1.109104E-5
         6332.924     1.096546E-5
         6338.559     1.088113E-5
         6344.195     1.079660E-5
         6349.836     1.071192E-5
         6355.486     1.062707E-5
         6361.141     1.054209E-5
         6366.797     1.045690E-5
         6372.458     1.033399E-5
         6378.128     1.016173E-5
         6383.803     1.004750E-5
         6389.479     9.961881E-6
         6395.161     9.875990E-6
         6400.851     9.789910E-6
         6406.546     9.703578E-6
         6412.246     9.617153E-6
         6417.951     9.530638E-6
         6423.654     9.444024E-6
          6429.37     9.357133E-6
          6435.09     9.270156E-6
         6440.813     9.183106E-6
         6446.543     9.095782E-6
         6452.275     9.008412E-6
         6458.016     8.920902E-6
         6463.758     8.833157E-6
          6469.51     8.745153E-6
         6475.262     8.657120E-6
         6481.023     8.568947E-6
          6486.79     8.480678E-6
         6492.562     8.392200E-6
         6498.338     8.303478E-6
         6504.113     8.206217E-6
           6509.9     8.105497E-6
         6515.692     8.004826E-6
         6521.486     7.904355E-6
         6527.288     7.803910E-6
         6533.096     7.703580E-6
         6538.901     7.603499E-6
         6544.719     7.574992E-6
         6550.542     7.554930E-6
         6556.367     7.455008E-6
         6562.201     7.355222E-6
         6568.039     7.255640E-6
         6573.883     7.156081E-6
         6579.725     7.056763E-6
         6585.579     7.041236E-6
         6591.438     7.008292E-6
           6597.3     6.909289E-6
         6603.169     6.810373E-6
         6609.045     6.711598E-6
         6614.921     6.686131E-6
         6620.803     6.662956E-6
         6626.694     6.564581E-6
         6632.586     6.466385E-6
         6638.488     6.368210E-6
         6644.395     6.335082E-6
         6650.306     6.319785E-6
         6656.223     6.221911E-6
         6662.138     6.155757E-6
         6668.066     6.145115E-6
         6673.999     6.075998E-6
         6679.937     5.978759E-6
         6685.876     5.881824E-6
         6691.825     5.811533E-6
         6697.776     5.801191E-6
         6703.731     5.790852E-6
         6709.696     5.780504E-6
         6715.666     5.688435E-6
         6721.637     5.615828E-6
         6727.618     5.605748E-6
         6733.604     5.543903E-6
         6739.587     5.448123E-6
         6745.584     5.432296E-6
         6751.586     5.399745E-6
         6757.593     5.304313E-6
         6763.602     5.260317E-6
          6769.62     5.250563E-6
         6775.643     5.240905E-6
         6781.664     5.207708E-6
         6787.698     5.112855E-6
         6793.737     5.070885E-6
         6799.778     5.061411E-6
         6805.828     5.051936E-6
         6811.883     5.042460E-6
         6817.937     5.032995E-6
         6824.003     4.967668E-6
         6830.075     4.874778E-6
         6836.152     4.865577E-6
         6842.234     4.856374E-6
         6848.318     4.847178E-6
         6854.411     4.837980E-6
         6860.506     4.828778E-6
         6866.606     4.819502E-6
         6872.716     4.810264E-6
         6878.831     4.801078E-6
         6884.948     4.791902E-6
         6891.073     4.782719E-6
         6897.205     4.773539E-6
         6903.334     4.764325E-6
         6909.476     4.755059E-6
         6915.624     4.745882E-6
         6921.777     4.736711E-6
         6927.936     4.727546E-6
         6934.096     4.718451E-6
         6940.261     4.712897E-6
         6946.437     4.786664E-6
         6952.613     4.825109E-6
         6958.799     4.815695E-6
         6964.991     4.806361E-6
         6971.184     4.812830E-6
         6977.387     4.885985E-6
         6983.591     4.958846E-6
           6989.8     5.031460E-6
          6996.02     5.024292E-6
         7002.244     5.042183E-6
         7008.475     5.108971E-6
         7014.707     5.175242E-6
         7020.948     5.241140E-6
          7027.19     5.306680E-6
         7033.443     5.371923E-6
         7039.697     5.436778E-6
          7045.96     5.501175E-6
         7052.226     5.593826E-6
           7058.5     5.738003E-6
         7064.777     5.881274E-6
         7071.063     6.023816E-6
          7077.35     6.165471E-6
         7083.647     6.306401E-6
          7089.95     6.446527E-6
         7096.258     6.664851E-6
         7102.568     6.882468E-6
         7108.883     7.098867E-6
         7115.208     7.314195E-6
         7121.539     7.547469E-6
         7127.872     7.838807E-6
         7134.213     8.128790E-6
         7140.557     8.423904E-6
         7146.911     8.788707E-6
         7153.266     9.151333E-6
         7159.626     9.512012E-6
         7165.997     9.944034E-6
         7172.372     1.034941E-5
         7178.754     1.070417E-5
         7185.141     1.111883E-5
         7191.526     1.152727E-5
         7197.925     1.187570E-5
         7204.329     1.217033E-5
         7210.735     1.242078E-5
         7217.151     1.253488E-5
         7223.572     1.256367E-5
         7229.995     1.252490E-5
         7236.424     1.225891E-5
         7242.863     1.189313E-5
         7249.303     1.140391E-5
         7255.753     1.084968E-5
         7262.208     1.023879E-5
          7268.67     9.532382E-6
         7275.137     8.829881E-6
         7281.603     8.113313E-6
         7288.081     7.343554E-6
         7294.566     6.682462E-6
         7301.052     6.069175E-6
         7307.548     5.458684E-6
          7314.05     4.897411E-6
         7320.553     4.373480E-6
         7327.063     3.919336E-6
         7333.582     3.507655E-6
         7340.103     3.132492E-6
         7346.634     2.830877E-6
          7353.17     2.566148E-6
         7359.713     2.340210E-6
         7366.253     2.115796E-6
         7372.807     1.892265E-6
         7379.367     1.669917E-6
         7385.933     1.513789E-6
           7392.5     1.392825E-6
         7399.078     1.316781E-6
         7405.657     1.179802E-6
         7412.242     1.057815E-6
         7418.837     9.833050E-7
         7425.434     9.092560E-7
         7432.041     8.355587E-7
         7438.653     7.622695E-7
         7445.271     7.454939E-7
         7451.896     7.229930E-7
         7458.518     6.506201E-7
         7465.154     5.785444E-7
         7471.796     5.257401E-7
         7478.444     5.240588E-7
         7485.094     5.223810E-7
         7491.753     5.024469E-7
         7498.415     4.316893E-7
         7505.083     4.138905E-7
          7511.76     4.125401E-7
         7518.444     4.111913E-7
         7525.129     4.098443E-7
         7531.825     3.898632E-7
         7538.526     3.203696E-7
         7545.225     3.043579E-7
         7551.938     3.033507E-7
         7558.658     3.023446E-7
         7565.383     3.013392E-7
          7572.11     3.003353E-7
         7578.847     2.993318E-7
          7585.59     2.983296E-7
         7592.335     2.973288E-7
         7599.086     2.963290E-7
         7605.848     2.953294E-7
         7612.611     2.687162E-7
         7619.384     2.015809E-7
         7626.163     1.948913E-7
          7632.94     1.942283E-7
         7639.731     1.935653E-7
         7646.529     1.929030E-7
         7653.333     1.922413E-7
         7660.142     1.915802E-7
         7666.953     1.909205E-7
         7673.775     1.902608E-7
         7680.598     1.896022E-7
         7687.428     1.889444E-7
         7694.268     1.882869E-7
         7701.114     1.876301E-7
         7707.961     1.869745E-7
         7714.819     1.863192E-7
         7721.684     1.856646E-7
          7728.55     1.850112E-7
         7735.422     1.843584E-7
         7742.304     1.837060E-7
         7749.193     1.830546E-7
         7756.088     1.824038E-7
         7762.984     1.817542E-7
         7769.887     1.811053E-7
           7776.8     1.804569E-7
         7783.715     1.798097E-7
         7790.641     1.791628E-7
         7797.573     1.785168E-7
         7804.506     1.778720E-7
          7811.45     1.772276E-7
         7818.396     1.765843E-7
         7825.348     1.759421E-7
         7832.311     1.753003E-7
         7839.279     1.746592E-7
         7846.254     1.740193E-7
         7853.231     1.733805E-7
         7860.218     1.727419E-7
         7867.208     1.721050E-7
         7874.208     1.714684E-7
         7881.209     1.708331E-7
         7888.222     1.701985E-7
         7895.235     1.695651E-7
          7902.26     1.689322E-7
         7909.287     1.683007E-7
         7916.324     1.676698E-7
         7923.363     1.670402E-7
         7930.413     1.664110E-7
         7937.469     1.657831E-7
         7944.531     1.651562E-7
         7951.596     1.645305E-7
         7958.666     1.639061E-7
         7965.747     1.632823E-7
         7972.834     1.626593E-7
         7979.924     1.620377E-7
         7987.024     1.614171E-7
         7994.126     3.598323E-7
         8001.239     5.711130E-7
         8008.354     1.714177E-7
         8015.479     1.659931E-7
         8022.606     3.389509E-7
         8029.744     6.166988E-7
         8036.889     8.916243E-7
          8044.04     1.007238E-6
         8051.192     9.281924E-7
         8058.351     4.841890E-7
         8065.521     2.968395E-7
         8072.693     2.477065E-7
         8079.875     3.004263E-7
         8087.064     3.525843E-7
         8094.255     4.992442E-7
         8101.453     6.881101E-7
         8108.661     7.903336E-7
         8115.871     7.624191E-7
         8123.092     7.279612E-7
         8130.319     7.214305E-7
         8137.553     6.651811E-7
         8144.794     6.780820E-7
         8152.032     7.400237E-7
         8159.285     8.382070E-7
         8166.544     9.352792E-7
         8173.806     9.779993E-7
         8181.079     9.347082E-7
         8188.357     6.778972E-7
         8195.639     5.400974E-7
         8202.926     4.773484E-7
         8210.225     4.759686E-7
         8217.525     5.222455E-7
         8224.837     5.679941E-7
         8232.154     5.701805E-7
         8239.479     4.697730E-7
         8246.801     3.706307E-7
         8254.139     3.265303E-7
         8261.482     3.244819E-7
         8268.833     3.224369E-7
         8276.186     2.014871E-7
          8283.55     1.499458E-7
         8290.915     2.187405E-7
         8298.287     4.490385E-7
         8305.671     6.058811E-7
         8313.061     5.875876E-7
         8320.452     3.642971E-7
         8327.855     2.712350E-7
         8335.265     2.753875E-7
         8342.682     3.021876E-7
         8350.095     2.996302E-7
         8357.524     2.542821E-7
         8364.961     1.795361E-7
         8372.398     1.333004E-7
         8379.848     1.771018E-7
         8387.304     3.502913E-7
         8394.757     4.689377E-7
         8402.227     5.160548E-7
         8409.702     4.706333E-7
         8417.185     4.674134E-7
         8424.669     4.115449E-7
         8432.165     3.106194E-7
         8439.667     1.793800E-7
         8447.167     1.730315E-7
         8454.683     1.993782E-7
         8462.205     2.039104E-7
         8469.734     1.172361E-7
         8477.266     1.138137E-7
         8484.809     1.952320E-7
         8492.357     3.358597E-7
         8499.909     5.047928E-7
         8507.467     5.050069E-7
         8515.036     3.905400E-7
         8522.608     2.349161E-7
          8530.19     1.099290E-7
          8537.78     6.755526E-8
         8545.372     5.507341E-8
         8552.971     5.486170E-8
         8560.581     6.417459E-8
         8568.197     1.882966E-7
         8575.821     2.484332E-7
         8583.446     2.141726E-7
         8591.083     1.192130E-7
         8598.723     2.005638E-7
         8606.368     3.152654E-7
         8614.026     2.648863E-7
          8621.69     1.147270E-7
         8629.356     1.546121E-7
         8637.034     3.048684E-7
         8644.719     3.901156E-7
         8652.406     4.033234E-7
           8660.1     3.621801E-7
         8667.805     3.604977E-7
         8675.517     3.305288E-7
         8683.236     2.565588E-7
         8690.957     1.523115E-7
         8698.685     1.515743E-7
         8706.425     2.477393E-7
         8714.166     2.584894E-7
          8721.92     1.800010E-7
          8729.68     1.022275E-7
         8737.442     6.187706E-8
         8745.216     7.458824E-8
         8752.992     1.850767E-7
         8760.775     3.993437E-7
          8768.57     5.100429E-7
         8776.372     3.444035E-7
         8784.181     1.588234E-7
         8791.991     5.691551E-8
         8799.814     9.352394E-8
         8807.639     2.731253E-7
         8815.476     3.266668E-7
         8823.314     2.940290E-7
         8831.165     2.252638E-7
         8839.022     1.879056E-7
         8846.882     1.509612E-7
         8854.748     1.789487E-7
         8862.627     2.133283E-7
         8870.507     1.790157E-7
         8878.399     1.778983E-7
         8886.299     2.324485E-7
         8894.206     1.895903E-7
         8902.114     7.803107E-8
          8910.03     4.360464E-8
         8917.958     1.115820E-7
         8925.888     2.541996E-7
         8933.829     3.398139E-7
         8941.778     3.374806E-7
         8949.729     3.351365E-7
         8957.692     3.647260E-7
         8965.657     3.716059E-7
         8973.634     3.539797E-7
         8981.613     3.188844E-7
         8989.604     2.842168E-7
         8997.604     3.109270E-7
         9005.608     3.629039E-7
         9013.616     3.808539E-7
         9021.631     3.531827E-7
         9029.658     3.507229E-7
         9037.688     3.185058E-7
         9045.729     2.633331E-7
         9053.776     2.144443E-7
         9061.827     1.962318E-7
         9069.885     2.250637E-7
         9077.955     3.425015E-7
         9086.032     3.255233E-7
         9094.111     2.636692E-7
         9102.202     2.347451E-7
         9110.301     2.892931E-7
         9118.402     2.869867E-7
          9126.51     2.383411E-7
          9134.63     1.627345E-7
         9142.758     1.049991E-7
         9150.888     1.041174E-7
         9159.029     1.032308E-7
         9167.179     1.023399E-7
          9175.33     6.539788E-8
         9183.488     3.351548E-8
         9191.659     3.872504E-8
         9199.833     6.527370E-8
         9208.019     6.521493E-8
         9216.211     4.454123E-8
         9224.411     6.022137E-8
         9232.608     1.281201E-7
         9240.822     2.170558E-7
         9249.045     1.893569E-7
         9257.274     1.397555E-7
         9265.506     1.217212E-7
         9273.749     9.786511E-8
         9281.995     5.363572E-8
         9290.249     3.166850E-8
         9298.515     1.035860E-7
         9306.788     2.130785E-7
         9315.063     2.419918E-7
         9323.352     1.969839E-7
         9331.647     1.299931E-7
          9339.95     8.277853E-8
          9348.25     1.039224E-7
         9356.567     1.249642E-7
         9364.893     1.713929E-7
          9373.22     2.177251E-7
          9381.56     2.243623E-7
         9389.906     1.788669E-7
         9398.256     1.967576E-7
         9406.612     1.492051E-7
         9414.982     9.790849E-8
         9423.359     8.042835E-8
         9431.738     9.504976E-8
          9440.13     9.334984E-8
         9448.529     7.258091E-8
         9456.926     9.959322E-8
          9465.34     1.356673E-7
         9473.762     1.374667E-7
          9482.19     9.874892E-8
         9490.622     6.518981E-8
         9499.066     8.176156E-8
         9507.519     9.814769E-8
         9515.972     5.324910E-8
         9524.434     2.012886E-8
         9532.908     1.986634E-8
         9541.385     1.960435E-8
         9549.874     1.934257E-8
         9558.371     3.505418E-8
          9566.87     6.350006E-8
         9575.377     9.419807E-8
         9583.896     1.169273E-7
         9592.424     1.175320E-7
         9600.958     9.060368E-8
         9609.495     1.042420E-7
         9618.046     1.452414E-7
         9626.598     1.530376E-7
         9635.157     9.889875E-8
          9643.73     3.716442E-8
         9652.311     1.623179E-8
         9660.898     1.884562E-8
         9669.489     4.555122E-8
         9678.093     5.890325E-8
         9686.698     5.064478E-8
         9695.312     5.280132E-8
         9703.938     6.458260E-8
         9712.572     6.479058E-8
         9721.208     4.600090E-8
         9729.857     6.929036E-8
          9738.51     1.033613E-7
         9747.174     9.782460E-8
         9755.841     6.145268E-8
         9764.521     3.291740E-8
         9773.209     2.938983E-8
         9781.899     3.486553E-8
         9790.603     2.357220E-8
         9799.309     1.272046E-8
         9808.022     2.098561E-8
         9816.749     3.046982E-8
         9825.483     5.173880E-8
         9834.226     6.532083E-8
          9842.97     5.749845E-8
         9851.728     3.795413E-8
         9860.487     2.076627E-8
         9869.261     2.893090E-8
         9878.036     5.215664E-8
         9886.825     6.276131E-8
         9895.622     6.915776E-8
         9904.421     7.906396E-8
         9913.233     8.934054E-8
         9922.049     8.044797E-8
         9930.871     3.053165E-8
         9939.707     8.619959E-9
         9948.551     1.424967E-8
         9957.402     2.038764E-8
         9966.257     2.159909E-8
         9975.118     2.088031E-8
         9983.993     2.016346E-8
         9992.871     1.572668E-8
         10001.77     6.267542E-9
         10010.66     6.544319E-9
         10019.56     1.176832E-8
         10028.48     1.677624E-8
         10037.39     2.582570E-8
         10046.32     2.822159E-8
         10055.26     2.761079E-8
         10064.21     2.246207E-8
         10073.16     1.584118E-8
         10082.12     1.876791E-8
         10091.09     3.135444E-8
         10100.06     3.924574E-8
         10109.05     1.671308E-8
         10118.04     1.030148E-8
         10127.04     1.559854E-8
         10136.04     2.863183E-8
         10145.06     3.258505E-8
         10154.09     2.791787E-8
         10163.11     2.602724E-8
         10172.15     2.549974E-8
          10181.2     1.514286E-8
         10190.26     1.138243E-8
         10199.33     1.105792E-8
          10208.4     1.374371E-8
         10217.48     2.167737E-8
         10226.57     2.135793E-8
         10235.67     1.587743E-8
         10244.77     9.619336E-9
         10253.88     6.112236E-9
           10263.     8.567422E-9
         10272.13     1.609167E-8
         10281.27     2.027646E-8
         10290.41     7.963240E-9
         10299.56     7.668769E-9
         10308.73     1.596161E-8
          10317.9     2.027205E-8
         10327.08     2.201173E-8
         10336.26     2.037111E-8
         10345.45     1.758234E-8
         10354.66     1.497081E-8
         10363.87     1.326821E-8
         10373.09     1.095967E-8
         10382.31     6.860887E-9
         10391.55     7.512944E-9
         10400.79     1.267603E-8
         10410.05     1.595664E-8
          10419.3     1.248653E-8
         10428.57     9.335044E-9
         10437.85     7.441375E-9
         10447.13     8.275999E-9
         10456.43     7.594941E-9
         10465.72     4.482498E-9
         10475.03     3.052862E-9
         10484.35     4.204285E-9
         10493.68     4.473945E-9
         10503.02     3.087797E-9
         10512.35     3.023553E-9
         10521.71     4.288393E-9
         10531.07     3.615254E-9
         10540.43     3.046726E-9
          10549.8     4.071647E-9
         10559.19     5.045505E-9
         10568.58     5.490747E-9
         10577.99     6.733335E-9
         10587.39     5.710098E-9
         10596.81     4.457434E-9
         10606.24     4.021027E-9
         10615.67     2.804408E-9
         10625.12     1.417492E-9
         10634.56     1.349356E-9
         10644.02     2.345774E-9
         10653.49     2.911759E-9
         10662.97     2.298749E-9
         10672.45     1.954722E-9
         10681.94     2.959919E-9
         10691.45     3.552524E-9
         10700.96     3.764876E-9
         10710.47     3.612327E-9
           10720.     2.823723E-9
         10729.54     2.405582E-9
         10739.08     2.010109E-9
         10748.64     1.636925E-9
          10758.2     1.285613E-9
         10767.77     1.416960E-9
         10777.34     2.058339E-9
         10786.93     2.772674E-9
         10796.53     3.082503E-9
         10806.12     2.582715E-9
         10815.74     2.194907E-9
         10825.36     2.354624E-9
         10834.99     2.126557E-9
         10844.63     1.711948E-9
         10854.28     1.722139E-9
         10863.94     1.830064E-9
         10873.58     1.987569E-9
         10883.27     2.057224E-9
         10892.95     1.740167E-9
         10902.63     1.341032E-9
         10912.33    9.418453E-10
         10922.04    5.635288E-10
         10931.75    6.223151E-10
         10941.47     1.011251E-9
         10951.21     1.071706E-9
         10960.95     1.208100E-9
         10970.71     1.308435E-9
         10980.46     1.298057E-9
         10990.22     1.263609E-9
           11000.    7.749130E-10
