#  Table wf2f300wsys.tab  Mon 12:21:39 02-Jun-97
#
#      WAVELENGTH      THROUGHPUT
#       angstroms                
#
            2220.    1.794048E-11
         2221.779     2.938053E-9
         2223.557     5.892478E-9
         2225.339     8.890295E-9
         2227.122     1.192722E-8
         2228.904     1.500002E-8
          2230.69     2.348784E-8
         2232.476     4.066354E-8
         2234.265     5.807044E-8
         2236.054     7.568567E-8
         2237.846     9.353422E-8
         2239.636     1.115803E-7
         2241.431     1.351333E-7
         2243.227     1.603206E-7
         2245.023     1.857896E-7
         2246.821     2.115655E-7
          2248.62     2.376425E-7
         2250.421     2.832309E-7
         2252.225     3.929010E-7
         2254.027     5.036152E-7
         2255.833     6.157821E-7
          2257.64     7.291654E-7
         2259.448     8.438456E-7
         2261.258     1.050152E-6
          2263.07     1.298700E-6
         2264.881     1.549652E-6
         2266.696     1.803762E-6
          2268.51     2.060462E-6
         2270.327     2.394294E-6
         2272.146     3.072857E-6
         2273.966     3.758387E-6
         2275.786     4.451182E-6
         2277.609     5.151356E-6
         2279.434     5.859415E-6
         2281.259     6.934843E-6
         2283.087     8.185408E-6
         2284.915     9.448093E-6
         2286.744     1.072378E-5
         2288.576     1.201268E-5
         2290.411     1.363302E-5
         2292.243     1.636908E-5
          2294.08     1.913642E-5
         2295.917     2.192964E-5
         2297.755     2.475803E-5
         2299.597     2.761869E-5
         2301.438     3.167164E-5
         2303.281     3.609523E-5
         2305.126     4.056809E-5
         2306.971     4.508030E-5
         2308.821     4.964819E-5
         2310.669     5.556025E-5
          2312.52     6.384375E-5
         2314.371     7.220972E-5
         2316.226     8.066631E-5
         2318.081     8.920160E-5
         2319.938     9.782714E-5
         2321.796     1.089887E-4
         2323.655     1.203446E-4
         2325.515     1.318108E-4
         2327.379     1.433953E-4
         2329.242     1.550848E-4
         2331.107     1.709613E-4
         2332.975     1.898073E-4
         2334.842     2.088049E-4
         2336.713     2.280094E-4
         2338.585     2.473965E-4
         2340.458     2.673874E-4
         2342.332     2.889227E-4
         2344.208     3.106549E-4
         2346.085     3.325876E-4
         2347.966     3.547476E-4
         2349.846     3.770780E-4
         2351.728     4.101777E-4
         2353.611     4.445206E-4
         2355.495     4.791739E-4
         2357.383     5.141525E-4
         2359.271     5.494439E-4
         2361.159     5.896631E-4
         2363.052     6.332381E-4
         2364.944     6.771548E-4
         2366.839     7.214828E-4
         2368.734     7.661542E-4
         2370.632     8.147383E-4
         2372.529     8.706846E-4
          2374.43     9.271709E-4
         2376.332     9.841350E-4
         2378.234     0.001041497
         2380.139     0.001099972
         2382.047      0.00116615
         2383.953     0.001232768
         2385.863     0.001300025
         2387.775     0.001367813
         2389.685     0.001436053
           2391.6     0.001515619
         2393.515     0.001597867
         2395.433      0.00168082
         2397.351     0.001764352
         2399.271      0.00184854
         2401.192     0.001936889
         2403.116     0.002028135
         2405.042     0.002120066
         2406.967     0.002212625
         2408.895     0.002305884
         2410.823     0.002404479
         2412.754     0.002510085
         2414.689     0.002616621
         2416.621     0.002723699
         2418.557       0.0028317
         2420.494     0.002941654
         2422.432     0.003055991
         2424.373     0.003171233
         2426.316     0.003287281
         2428.257     0.003403977
         2430.203     0.003522785
         2432.149     0.003652029
         2434.096     0.003782138
         2436.047     0.003913249
         2437.997     0.004045167
         2439.949     0.004177975
         2441.903      0.00431123
         2443.861     0.004445539
         2445.817     0.004580466
         2447.777     0.004716466
         2449.737     0.004853271
         2451.698     0.004997334
         2453.663     0.005143408
         2455.627     0.005290349
         2457.594     0.005438234
         2459.563     0.005587174
         2461.531     0.005731542
         2463.503     0.005875506
         2465.477      0.00602037
         2467.451     0.006166044
         2469.427     0.006312638
         2471.406     0.006468366
         2473.384     0.006628158
         2475.367     0.006789268
         2477.349     0.006951168
         2479.333     0.007114056
         2481.318     0.007270043
         2483.306      0.00742306
         2485.295     0.007576897
         2487.286     0.007731743
         2489.278     0.007887434
         2491.271     0.008049868
         2493.266     0.008216553
         2495.264     0.008384394
         2497.261     0.008553081
         2499.261     0.008722803
         2501.264     0.008882664
         2503.265     0.009036804
         2505.271     0.009192057
         2507.277     0.009348082
         2509.286     0.009505133
         2511.295     0.009670037
         2513.308     0.009839914
         2515.319      0.01001056
         2517.336      0.01018253
          2519.35      0.01035515
         2521.369      0.01051333
         2523.388      0.01066485
         2525.408      0.01081722
         2527.432      0.01097055
         2529.457      0.01112473
         2531.481      0.01128648
          2533.51      0.01145193
         2535.538      0.01161817
          2537.57      0.01178012
         2539.602      0.01192878
         2541.637      0.01205843
          2543.67      0.01218346
         2545.708      0.01230896
         2547.749      0.01243478
         2549.787      0.01256072
          2551.83      0.01269683
         2553.875      0.01283442
         2555.918      0.01297215
         2557.967      0.01311042
         2560.016       0.0132488
         2562.065      0.01336025
         2564.117      0.01347208
         2566.171       0.0135841
         2568.227      0.01369645
         2570.283      0.01381001
         2572.343      0.01393063
         2574.401      0.01405135
         2576.464       0.0141725
         2578.527      0.01429383
         2580.593       0.0144086
          2582.66      0.01450632
         2584.729       0.0146043
         2586.797      0.01470233
         2588.872      0.01480075
         2590.943      0.01489978
         2593.019      0.01499992
         2595.095      0.01510018
         2597.173      0.01520062
         2599.254      0.01530132
         2601.337      0.01539393
         2603.419      0.01548196
         2605.505      0.01557025
          2607.59      0.01565856
         2609.679      0.01574712
          2611.77      0.01583573
         2613.862       0.0159244
         2615.955      0.01601321
         2618.049      0.01610216
         2620.148      0.01619078
         2622.245      0.01627182
         2624.346      0.01635306
         2626.448      0.01643435
         2628.551      0.01651577
         2630.657      0.01659579
         2632.765      0.01667253
         2634.872      0.01674924
         2636.983      0.01682614
         2639.094      0.01690307
         2641.209       0.0169741
         2643.324      0.01704061
          2645.44      0.01710717
         2647.559      0.01717377
          2649.68      0.01724045
           2651.8      0.01729902
         2653.927      0.01735629
         2656.052      0.01741348
         2658.178      0.01747067
         2660.307      0.01752712
         2662.439      0.01757904
         2664.571      0.01763091
         2666.706       0.0176828
         2668.841      0.01773463
         2670.978      0.01778604
         2673.117      0.01783695
         2675.259      0.01788788
         2677.401      0.01793873
         2679.545      0.01798956
         2681.692      0.01804093
         2683.838      0.01809234
         2685.988      0.01814379
          2688.14      0.01819522
         2690.293      0.01824867
         2692.447      0.01831548
         2694.603      0.01838231
         2696.761      0.01844915
         2698.923       0.0185161
         2701.084      0.01859119
         2703.247      0.01867463
         2705.412      0.01875832
         2707.578      0.01884224
         2709.747      0.01892646
         2711.919      0.01900764
          2714.09      0.01908853
         2716.263      0.01916966
         2718.438      0.01925101
         2720.617      0.01932833
         2722.795      0.01939487
         2724.977      0.01946158
         2727.157      0.01952833
         2729.343       0.0195953
         2731.528      0.01965856
         2733.715       0.0197203
         2735.906      0.01978217
         2738.098      0.01984413
         2740.289      0.01990547
         2742.485      0.01996274
         2744.681      0.02002005
         2746.878      0.02007741
         2749.079      0.02013488
         2751.279      0.02016749
         2753.485      0.02018223
          2755.69      0.02019697
         2757.897      0.02021173
         2760.105      0.02022619
         2762.317      0.02023441
          2764.53      0.02024264
         2766.744      0.02025085
         2768.959      0.02025907
         2771.176      0.02026614
         2773.395      0.02027219
         2775.619      0.02027825
          2777.84      0.02028429
         2780.066      0.02029013
         2782.292      0.02028922
          2784.52      0.02028828
         2786.751      0.02028733
         2788.984      0.02028637
         2791.216      0.02028682
         2793.452      0.02028848
         2795.689      0.02029013
         2797.927      0.02029177
         2800.169      0.02029305
          2802.41      0.02028996
         2804.656      0.02028685
         2806.901      0.02028373
         2809.151      0.02028058
           2811.4      0.02027537
         2813.653      0.02026888
         2815.904      0.02026237
          2818.16      0.02025583
         2820.419      0.02024909
         2822.677      0.02024149
         2824.937      0.02023387
         2827.201      0.02022622
         2829.463      0.02021856
         2831.732      0.02021276
         2833.999      0.02020754
         2836.269       0.0202023
          2838.54      0.02019703
         2840.814      0.02019331
         2843.089      0.02019238
         2845.367      0.02019144
         2847.645      0.02019049
         2849.926      0.02018953
         2852.208       0.0201802
         2854.491      0.02017056
         2856.777      0.02016089
         2859.068       0.0201512
         2861.357       0.0201461
         2863.648      0.02014416
         2865.943      0.02014221
         2868.238      0.02014024
         2870.534      0.02013628
         2872.833      0.02012572
         2875.135      0.02011512
         2877.436      0.02010453
         2879.741      0.02009389
         2882.047      0.02008683
         2884.356      0.02008021
         2886.666      0.02007357
         2888.979      0.02006692
         2891.291      0.02005432
         2893.609      0.02003695
         2895.924      0.02001958
         2898.245      0.02000216
         2900.566      0.01997642
          2902.89      0.01992492
         2905.214      0.01987344
         2907.541      0.01982196
         2909.869      0.01977046
           2912.2      0.01972715
         2914.532      0.01968434
         2916.867      0.01964148
         2919.203      0.01959863
         2921.542      0.01955084
          2923.88      0.01950059
         2926.223      0.01945027
         2928.568      0.01939995
         2930.911      0.01934864
          2933.26       0.0192956
         2935.608      0.01924261
         2937.959      0.01918961
         2940.313      0.01913731
         2942.669      0.01908971
         2945.024      0.01904216
         2947.384      0.01899454
         2949.744      0.01894695
         2952.107       0.0188963
         2954.471      0.01884532
         2956.838      0.01879429
         2959.204      0.01874335
         2961.575      0.01869369
         2963.947      0.01864474
         2966.322      0.01859577
         2968.697      0.01854683
         2971.074      0.01849384
         2973.453      0.01843599
         2975.837      0.01837807
         2978.219      0.01832029
         2980.605      0.01826431
          2982.99      0.01821388
         2985.382      0.01816334
         2987.772      0.01811289
         2990.165      0.01806204
         2992.559      0.01800587
         2994.957      0.01794967
         2997.355      0.01789353
         2999.755      0.01783741
         3002.159      0.01778149
         3004.563      0.01772564
         3006.969      0.01766982
         3009.376      0.01761401
          3011.79      0.01755874
         3014.199      0.01750383
         3016.615      0.01744884
          3019.03      0.01739392
         3021.448      0.01733998
         3023.869      0.01728667
          3026.29      0.01723342
         3028.713      0.01718017
          3031.14      0.01712428
         3033.567      0.01706549
         3035.998      0.01700668
         3038.427      0.01694799
         3040.864      0.01688955
         3043.297      0.01683187
         3045.735      0.01677416
         3048.174       0.0167165
         3050.617      0.01665783
         3053.059      0.01659626
         3055.504      0.01653472
         3057.951      0.01647323
         3060.401      0.01641205
         3062.852      0.01635258
         3065.306       0.0162931
         3067.759      0.01623373
         3070.217      0.01617398
         3072.677      0.01611079
         3075.137      0.01604769
           3077.6      0.01598463
         3080.064      0.01592162
          3082.53      0.01585831
            3085.      0.01579502
          3087.47      0.01573182
         3089.944      0.01566863
         3092.418      0.01560352
         3094.895      0.01553841
         3097.373      0.01547336
         3099.853      0.01540838
         3102.339      0.01538841
         3104.821      0.01537121
         3107.309       0.0153539
         3109.797      0.01533649
         3112.287      0.01531424
         3114.781      0.01529143
         3117.277       0.0152685
         3119.771      0.01524549
         3122.271      0.01521899
         3124.771      0.01519205
         3127.275      0.01516495
         3129.779      0.01513774
         3132.287      0.01510925
         3134.793      0.01508055
         3137.305      0.01505168
         3139.817      0.01502269
         3142.331      0.01499732
         3144.849       0.0149721
         3147.369      0.01494675
         3149.888      0.01492132
         3152.412      0.01488576
         3154.936      0.01484959
         3157.462      0.01481327
         3159.992      0.01477676
         3162.521      0.01474576
         3165.057      0.01471457
         3167.591      0.01468328
         3170.127      0.01465151
         3172.666      0.01461314
         3175.208      0.01457458
          3177.75      0.01453589
         3180.297      0.01449737
         3182.843      0.01446156
         3185.392      0.01442558
         3187.942      0.01438945
         3190.499      0.01435132
         3193.052      0.01430575
          3195.61      0.01425993
         3198.169      0.01421396
          3200.73      0.01416997
         3203.295      0.01413128
         3205.861      0.01409242
         3208.427      0.01405345
         3210.997      0.01401027
         3213.569      0.01396064
         3216.142       0.0139108
         3218.719      0.01386073
         3221.294      0.01381374
         3223.875       0.0137697
         3226.457      0.01372551
         3229.042       0.0136811
         3231.628      0.01363081
         3234.217       0.0135769
         3236.805      0.01352284
         3239.399       0.0134685
         3241.995      0.01341978
         3244.591      0.01337267
         3247.188      0.01332537
         3249.791      0.01327783
         3252.391      0.01321938
         3254.999      0.01315962
         3257.605      0.01309972
         3260.214      0.01304002
         3262.824      0.01298511
         3265.439      0.01292995
         3268.053      0.01287461
         3270.672       0.0128168
         3273.291      0.01275238
         3275.912      0.01268772
         3278.535       0.0126228
          3281.16      0.01256245
          3283.79      0.01250793
         3286.421       0.0124532
         3289.052      0.01239828
         3291.686      0.01233745
         3294.323      0.01227311
         3296.959      0.01220861
         3299.601      0.01214377
         3302.243      0.01208341
         3304.889      0.01202361
         3307.536      0.01196362
         3310.184      0.01190266
         3312.835      0.01183166
         3315.489      0.01176033
         3318.144      0.01168878
         3320.803      0.01161986
          3323.46      0.01155759
         3326.123      0.01149499
         3328.786      0.01143219
         3331.454      0.01136343
         3334.123      0.01128965
         3336.793      0.01121564
         3339.465      0.01114135
         3342.139      0.01107826
         3344.815      0.01101781
         3347.497      0.01095703
         3350.174      0.01089549
          3352.86      0.01082352
         3355.545      0.01075137
         3358.232      0.01067893
         3360.923      0.01060853
         3363.614      0.01054243
         3366.309      0.01047603
         3369.003      0.01040945
         3371.702      0.01033809
         3374.402      0.01026391
         3377.104      0.01018943
          3379.81      0.01011462
         3382.518      0.01005534
         3385.225       0.0099971
         3387.937     0.009938551
          3390.65     0.009870288
         3393.367      0.00977142
         3396.082     0.009672314
         3398.805     0.009572622
         3401.527     0.009490918
          3404.25     0.009423182
         3406.977     0.009355176
         3409.707      0.00928686
         3412.435     0.009222677
         3415.171     0.009158627
         3417.904     0.009094452
         3420.643     0.009028786
         3423.382     0.008959142
         3426.125      0.00888918
         3428.868     0.008818985
         3431.614     0.008752144
         3434.363     0.008687545
         3437.113     0.008622738
         3439.865     0.008557668
         3442.622     0.008488406
         3445.376     0.008418771
         3448.137     0.008348761
           3450.9     0.008281011
         3453.663     0.008218296
         3456.429     0.008155324
         3459.197     0.008092106
          3461.97     0.008026144
          3464.74     0.007959072
         3467.517     0.007891643
         3470.293     0.007824825
         3473.072      0.00776482
         3475.853     0.007704574
         3478.636     0.007644086
         3481.424     0.007580781
         3484.213      0.00751479
         3487.001      0.00744862
         3489.797      0.00738205
          3492.59     0.007323026
         3495.388     0.007264282
         3498.187     0.007205341
          3500.99     0.007144425
         3503.793     0.007080185
         3506.599     0.007015687
         3509.407     0.006950927
         3512.221       0.0068927
         3515.029     0.006836232
         3517.848     0.006779368
         3520.665     0.006721081
         3523.484     0.006658398
         3526.305     0.006595465
         3529.131     0.006532233
         3531.958     0.006474692
         3534.787       0.0064196
         3537.617     0.006364275
          3540.45     0.006307923
         3543.285     0.006247082
         3546.124     0.006185948
         3548.963       0.0061246
         3551.805     0.006069052
         3554.651     0.006016716
         3557.498     0.005964195
         3560.348     0.005910874
         3563.197     0.005853474
         3566.054     0.005795718
         3568.909     0.005737798
         3571.767     0.005683343
         3574.627     0.005630964
          3577.49     0.005578361
         3580.354     0.005525212
         3583.225      0.00546948
         3586.094     0.005413593
         3588.968     0.005357428
          3591.84     0.005304823
         3594.719     0.005253982
         3597.596     0.005203028
         3600.479     0.005151158
         3603.362     0.005095944
         3606.247     0.005040499
         3609.135     0.004984817
         3612.025     0.004933811
         3614.919     0.004884657
         3617.815     0.004835295
          3620.71     0.004784998
         3623.612     0.004731979
         3626.513     0.004678769
         3629.417     0.004625333
         3632.327     0.004576611
         3635.232     0.004529068
         3638.146     0.004481195
          3641.06     0.004432053
         3643.975     0.004380718
         3646.895      0.00432913
         3649.813     0.004277395
          3652.74     0.004230569
         3655.665     0.004183965
         3658.592     0.004137161
         3661.521      0.00408866
         3664.453      0.00403857
         3667.392     0.003988197
         3670.326     0.003938304
         3673.267     0.003892878
         3676.208     0.003847285
         3679.152     0.003801501
           3682.1     0.003754051
         3685.051     0.003705817
         3687.999     0.003657445
         3690.954     0.003610649
          3693.91     0.003567562
         3696.868     0.003524294
         3699.828     0.003480841
          3702.79       0.0034352
          3705.76     0.003389172
         3708.723      0.00334308
         3711.697     0.003298282
         3714.668     0.003254581
         3717.643     0.003210691
          3720.62     0.003166351
         3723.601     0.003120789
         3726.585     0.003075034
         3729.569     0.003029117
         3732.555     0.002985453
         3735.546     0.002941995
         3738.535     0.002898411
         3741.533     0.002854045
         3744.527     0.002809105
         3747.527      0.00276391
         3750.528     0.002719021
         3753.531     0.002676117
         3756.539     0.002633005
         3759.547     0.002589738
         3762.559     0.002544808
         3765.572     0.002499466
         3768.587     0.002453929
         3771.605     0.002409633
         3774.625      0.00236641
         3777.651     0.002322946
         3780.676     0.002279199
         3783.704     0.002234716
         3786.733     0.002190051
         3789.765     0.002145196
         3792.802     0.002101962
         3795.839     0.002058731
         3798.881     0.002015293
         3801.923     0.001971283
         3804.967     0.001926847
         3808.014     0.001882224
         3811.065      0.00182734
         3814.116     0.001753501
         3817.173     0.001679309
         3820.227     0.001604917
         3823.288     0.001530103
          3826.35     0.001455047
         3829.416     0.001379636
         3832.484     0.001337666
         3835.553     0.001303509
         3838.624     0.001269217
         3841.698     0.001232876
         3844.774     0.001194839
         3847.857     0.001156593
         3850.934     0.001120275
         3854.021     0.001088268
         3857.108     0.001056172
         3860.196     0.001023755
         3863.289     9.883167E-4
         3866.383     9.527591E-4
         3869.481     9.170342E-4
         3872.577     8.865021E-4
          3875.68     8.568736E-4
         3878.783     8.271453E-4
         3881.889     7.957710E-4
            3885.     7.632596E-4
         3888.113     7.306197E-4
         3891.224     7.005635E-4
         3894.342     6.744736E-4
          3897.46     6.482967E-4
         3900.583     6.216969E-4
         3903.704     5.937173E-4
         3906.834     5.655690E-4
         3909.963     5.373480E-4
         3913.094     5.148567E-4
         3916.227     4.923445E-4
         3919.365     4.697303E-4
         3922.501     4.464701E-4
         3925.646     4.229227E-4
         3928.788     3.993303E-4
         3931.936     3.791005E-4
         3935.084     3.609916E-4
         3938.237     3.428003E-4
         3941.391     3.245144E-4
         3944.547     3.061132E-4
         3947.707     2.876291E-4
         3950.868     2.703402E-4
         3954.032     2.563032E-4
           3957.2     2.422032E-4
         3960.367     2.281003E-4
          3963.54     2.141707E-4
         3966.716     2.001879E-4
         3969.892     1.861627E-4
         3973.071     1.757752E-4
         3976.252     1.654779E-4
         3979.441     1.551277E-4
         3982.625     1.450891E-4
         3985.816     1.350697E-4
         3989.008     1.250196E-4
         3992.202     1.168959E-4
         3995.399     1.096286E-4
           3998.6     1.023298E-4
         4001.802     9.516554E-5
         4005.009     8.810833E-5
         4008.213     8.105796E-5
         4011.427     7.491236E-5
         4014.637     6.993047E-5
         4017.854     6.493954E-5
         4021.071     6.008516E-5
         4024.293     5.549769E-5
         4027.515     5.091112E-5
          4030.74     4.663989E-5
         4033.968     4.343308E-5
         4037.202     4.022070E-5
         4040.431     3.705975E-5
          4043.67     3.417656E-5
         4046.908     3.129608E-5
         4050.149     2.845594E-5
         4053.392     2.647311E-5
          4056.64     2.448831E-5
          4059.89     2.250275E-5
         4063.141     2.074482E-5
         4066.395     1.899432E-5
         4069.651     1.724322E-5
          4072.91     1.599973E-5
         4076.173     1.481614E-5
         4079.437     1.363298E-5
         4082.704     1.256325E-5
         4085.975     1.151630E-5
         4089.247     1.046968E-5
         4092.523     9.680185E-6
         4095.798     8.968535E-6
         4099.082     8.255260E-6
         4102.365     7.613581E-6
         4105.649     6.999443E-6
         4108.937     6.385125E-6
         4112.227     5.891072E-6
          4115.52     5.454357E-6
          4118.82     5.017001E-6
         4122.118     4.618217E-6
         4125.418     4.240551E-6
         4128.722     3.862801E-6
          4132.03     3.569969E-6
         4135.339     3.330885E-6
         4138.652     3.091607E-6
         4141.966     2.864223E-6
         4145.283     2.644863E-6
         4148.602     2.425521E-6
         4151.924     2.240602E-6
         4155.251     2.080657E-6
         4158.578     1.920805E-6
         4161.908     1.795130E-6
         4165.243     1.694874E-6
         4168.578     1.594692E-6
         4171.916     1.483049E-6
         4175.261     1.362737E-6
           4178.6     1.242745E-6
         4181.951     1.157308E-6
         4185.299     1.096995E-6
          4188.65     1.036685E-6
         4192.004     9.644277E-7
         4195.361     8.841212E-7
         4198.725     8.037159E-7
         4202.087     7.488072E-7
         4205.452     7.093408E-7
         4208.822     6.697513E-7
         4212.189     6.301184E-7
         4215.567     5.903041E-7
          4218.94     5.504700E-7
         4222.321     5.104846E-7
         4225.702     4.704260E-7
         4229.085     4.302674E-7
         4232.474     4.048172E-7
         4235.863     3.848097E-7
         4239.255     3.647549E-7
         4242.652     3.446322E-7
         4246.049     3.244762E-7
         4249.449     3.042703E-7
         4252.852     2.840141E-7
         4256.259     2.636963E-7
         4259.667     2.433430E-7
         4263.078     2.415259E-7
         4266.494     2.417152E-7
         4269.911     2.419044E-7
          4273.33     2.219420E-7
         4276.754     2.013744E-7
         4280.178     1.818548E-7
         4283.608     1.819950E-7
         4287.038     1.821354E-7
         4290.471     1.822758E-7
         4293.909     1.824162E-7
         4297.344     1.825565E-7
          4300.79     1.778855E-7
         4304.234     1.570319E-7
         4307.681     1.361288E-7
          4311.13     1.220754E-7
         4314.582     1.221679E-7
         4318.039     1.222606E-7
         4321.497     1.223533E-7
         4324.959     1.224460E-7
         4328.422     1.225387E-7
         4331.889     1.226315E-7
         4335.359     1.227243E-7
         4338.829     1.228171E-7
         4342.305     1.229091E-7
         4345.785     1.230008E-7
         4349.265     1.230925E-7
         4352.747     1.231831E-7
         4356.232     1.232735E-7
         4359.723     1.233642E-7
         4363.216     1.234559E-7
         4366.708     1.235476E-7
         4370.207     1.236396E-7
         4373.706     1.237301E-7
         4377.208     1.238208E-7
         4380.716     1.239117E-7
         4384.223     1.240024E-7
         4387.736     1.240933E-7
          4391.25     1.241837E-7
         4394.766     1.242732E-7
         4398.288     1.243629E-7
         4401.809     1.244532E-7
         4405.336     1.245443E-7
         4408.864     1.246354E-7
         4412.394     1.247255E-7
         4415.927     1.248153E-7
         4419.463     1.249052E-7
         4423.004     1.249952E-7
         4426.544     1.250852E-7
         4430.093     1.251754E-7
          4433.64     1.252641E-7
          4437.19     1.253528E-7
         4440.746     1.254420E-7
         4444.299     1.255320E-7
          4447.86     1.256223E-7
         4451.424     1.257121E-7
         4454.989     1.258011E-7
         4458.556     1.258901E-7
         4462.126     1.259792E-7
         4465.702     1.260683E-7
          4469.28     1.261576E-7
         4472.859     1.262468E-7
          4476.44     1.263361E-7
         4480.024     1.264255E-7
         4483.614     1.265149E-7
         4487.205     1.266044E-7
           4490.8     1.266940E-7
         4494.396     1.267835E-7
         4497.995     1.268731E-7
         4501.597     1.271276E-7
         4505.201     1.275895E-7
         4508.809     1.280519E-7
         4512.424     1.285145E-7
         4516.037     1.289765E-7
         4519.653     1.294389E-7
         4523.272     1.299029E-7
         4526.894     1.303675E-7
         4530.521     1.308327E-7
         4534.147     1.312966E-7
         4537.782     1.317618E-7
         4541.416     1.322269E-7
         4545.052     1.326923E-7
         4548.694     1.331586E-7
         4552.334     1.336255E-7
         4555.984     1.340945E-7
         4559.632     1.345632E-7
         4563.283     1.350310E-7
         4566.938     1.354993E-7
         4570.594     1.359679E-7
         4574.259     1.364376E-7
         4577.922     1.369071E-7
         4581.587     1.373770E-7
         4585.256     1.378474E-7
         4588.928     1.383183E-7
         4592.604     1.387899E-7
         4596.282     1.392617E-7
         4599.965     1.397343E-7
         4603.648     1.402069E-7
         4607.334     1.406800E-7
         4611.024     1.411536E-7
         4614.716     1.416277E-7
         4618.411     1.421022E-7
         4622.112     1.425766E-7
         4625.813     1.430504E-7
          4629.52     1.435250E-7
         4633.227     1.207696E-7
         4636.937     9.436915E-8
         4640.649     7.247755E-8
         4644.365     7.271640E-8
         4648.089     7.295580E-8
         4651.812     7.319511E-8
         4655.536     7.343460E-8
         4659.264     7.367434E-8
         4662.995     7.391363E-8
         4666.734     7.415336E-8
         4670.468     7.439291E-8
          4674.21     7.463375E-8
         4677.953     7.487467E-8
         4681.699     7.511580E-8
         4685.453     7.535746E-8
         4689.202     7.559894E-8
         4692.959     7.584023E-8
         4696.717     7.608144E-8
         4700.478     7.632296E-8
         4704.242     7.656545E-8
         4708.009     7.680821E-8
         4711.784     7.705112E-8
         4715.557     7.729349E-8
         4719.333     7.753611E-8
         4723.111     7.777958E-8
         4726.894     7.802349E-8
         4730.678     7.826744E-8
         4734.469     7.851111E-8
         4738.263     7.875503E-8
         4742.057     7.899948E-8
         4745.854     7.924457E-8
         4749.654     7.948986E-8
          4753.46     7.973477E-8
         4757.266     7.997961E-8
         4761.078     8.022513E-8
          4764.89     8.047134E-8
         4768.706     8.071781E-8
         4772.524     8.096454E-8
         4776.348     8.121171E-8
         4780.175     8.145906E-8
            4784.     8.170539E-8
         4787.834     8.195231E-8
         4791.667     8.219966E-8
         4795.504     8.244783E-8
          4799.35     8.269657E-8
          4803.19     8.294496E-8
         4807.039     8.319399E-8
         4810.888     7.603568E-8
          4814.74     4.401964E-8
         4818.595     1.179175E-8
         4822.454     2.065680E-8
          4826.32     5.336852E-8
         4830.185     8.312274E-8
         4834.053     5.051637E-8
         4837.923     1.769132E-8
         4841.797              0.
         4845.677              0.
         4849.557              0.
         4853.443              0.
          4857.33              0.
         4861.219              0.
         4865.114              0.
          4869.01              0.
         4872.908              0.
         4876.813              0.
         4880.718              0.
         4884.626              0.
         4888.538              0.
         4892.455              0.
         4896.375              0.
         4900.293              0.
         4904.219              0.
         4908.146              0.
         4912.079              0.
          4916.01              0.
         4919.949              0.
         4923.891              0.
         4927.833              0.
         4931.779              0.
         4935.731              0.
         4939.681              0.
         4943.636              0.
         4947.597              0.
         4951.562              0.
         4955.527              0.
         4959.495              0.
         4963.469              0.
         4967.446              0.
         4971.421              0.
         4975.404              0.
         4979.388              0.
         4983.375              0.
         4987.368              0.
         4991.365              0.
         4995.359              0.
         4999.361              0.
         5003.364              0.
         5007.371              0.
         5011.383              0.
         5015.399              0.
         5019.415              0.
         5023.434              0.
         5027.457              0.
         5031.482              0.
         5035.514              0.
         5039.548              0.
         5043.584              0.
         5047.623              0.
         5051.664              0.
         5055.709              0.
          5059.76              0.
         5063.814              0.
         5067.869              0.
         5071.927              0.
         5075.988              0.
         5080.053              0.
         5084.121              0.
         5088.195              0.
         5092.271              0.
         5096.349              0.
          5100.43     1.417278E-9
         5104.514     1.491979E-8
         5108.602     2.851917E-8
         5112.695     3.314419E-8
         5116.792     3.307117E-8
         5120.889     3.299706E-8
         5124.989     3.292180E-8
         5129.096     3.284533E-8
           5133.2     3.276745E-8
         5137.313     3.268822E-8
          5141.43     3.260796E-8
         5145.546     3.252688E-8
         5149.667     3.244462E-8
         5153.793     3.236109E-8
         5157.917     3.227649E-8
          5162.05     3.219060E-8
         5166.186     3.210353E-8
         5170.323     3.201534E-8
         5174.463     3.192591E-8
         5178.606     3.183528E-8
         5182.756     3.174316E-8
         5186.906     3.164978E-8
         5191.059     3.155527E-8
         5195.219     3.145973E-8
         5199.378     3.136306E-8
         5203.542     3.140346E-8
         5207.711     3.146801E-8
         5211.884     3.153259E-8
         5216.055     3.159714E-8
         5220.234     3.166166E-8
         5224.414     3.172572E-8
         5228.598     3.178966E-8
         5232.787     3.185350E-8
          5236.98     3.191721E-8
         5241.173     3.198077E-8
          5245.37     3.204425E-8
          5249.57     3.210760E-8
         5253.774     3.217122E-8
         5257.984     3.223482E-8
         5262.197     3.229784E-8
         5266.411     3.236028E-8
         5270.627     3.242267E-8
         5274.848     3.248534E-8
         5279.071     3.254790E-8
         5283.302     3.261035E-8
         5287.535     3.267267E-8
         5291.769     3.273468E-8
         5296.006     3.279634E-8
         5300.247     3.284984E-8
         5304.491     3.277252E-8
         5308.738     3.269416E-8
         5312.992     3.261501E-8
          5317.25     3.253496E-8
         5321.507     3.245364E-8
         5325.768     3.237075E-8
         5330.033     3.228681E-8
         5334.301     3.220224E-8
         5338.575     3.211657E-8
         5342.853     3.202986E-8
         5347.131     3.194216E-8
         5351.413     3.185328E-8
         5355.697     3.176307E-8
         5359.986     3.167180E-8
         5364.281     3.157940E-8
         5368.579     3.148595E-8
         5372.878     3.139123E-8
          5377.18     3.129533E-8
         5381.489     3.119843E-8
         5385.795     3.110086E-8
          5390.11     3.100206E-8
         5394.429     3.090179E-8
         5398.749     3.080050E-8
         5403.072     3.072225E-8
         5407.398     3.065293E-8
         5411.731     3.058273E-8
         5416.064     3.051172E-8
         5420.404     3.043975E-8
         5424.745     3.036653E-8
         5429.088     3.029244E-8
         5433.436     3.021746E-8
         5437.789     3.014155E-8
         5442.141     3.006485E-8
         5446.501     2.998717E-8
         5450.865     2.990851E-8
          5455.23     2.982868E-8
         5459.598     2.974796E-8
         5463.973     2.966632E-8
         5468.351     2.958378E-8
         5472.727     2.950024E-8
         5477.112     2.941552E-8
         5481.498     2.932996E-8
         5485.887     2.924347E-8
         5490.283     2.915601E-8
         5494.682     2.906765E-8
         5499.082     2.897844E-8
         5503.485     2.889174E-8
         5507.892     2.880511E-8
         5512.302     2.871760E-8
         5516.719     2.862919E-8
          5521.14     2.853993E-8
         5525.561     2.844996E-8
         5529.985     2.835915E-8
         5534.413     2.826710E-8
         5538.844     2.817424E-8
          5543.28     2.808023E-8
         5547.721     2.798526E-8
         5552.167     2.788956E-8
         5556.612     2.779324E-8
         5561.062     2.769601E-8
         5565.515     2.759768E-8
         5569.971     2.749851E-8
         5574.434     2.739844E-8
         5578.901     2.729750E-8
         5583.368     2.719550E-8
         5587.839     2.709256E-8
         5592.313     2.698873E-8
         5596.792     2.688402E-8
         5601.276     2.677149E-8
         5605.764     2.664089E-8
         5610.253     2.650983E-8
         5614.745     2.637820E-8
         5619.241     2.624601E-8
         5623.741     2.611296E-8
         5628.247     2.597921E-8
         5632.756     2.584483E-8
         5637.267     2.570992E-8
         5641.781     2.557448E-8
         5646.301     2.543842E-8
         5650.819     2.530199E-8
         5655.347     2.516479E-8
         5659.879     2.502700E-8
         5664.411     2.488867E-8
         5668.947     2.474978E-8
         5673.489     2.460998E-8
         5678.035     2.446956E-8
         5682.576     2.432885E-8
         5687.129     2.418729E-8
         5691.686     2.404515E-8
         5696.243     2.390252E-8
         5700.805     2.375929E-8
         5705.373     2.361535E-8
         5709.938     2.347103E-8
         5714.513     2.332599E-8
         5719.092     2.318039E-8
         5723.671     2.303427E-8
         5728.254     2.288758E-8
         5732.845     2.274019E-8
         5737.438     2.259225E-8
         5742.029     2.244374E-8
          5746.63     2.229425E-8
         5751.231     2.214436E-8
         5755.837     2.199415E-8
         5760.449     2.184326E-8
         5765.064     2.169179E-8
         5769.681     2.153984E-8
         5774.301     2.138700E-8
         5778.924     2.123356E-8
         5783.552     2.107970E-8
         5788.186     2.092519E-8
         5792.824     2.076995E-8
         5797.462     2.061416E-8
         5802.105     2.052417E-8
          5806.75     2.051404E-8
           5811.4     2.050370E-8
         5816.057     2.049302E-8
         5820.717     2.048227E-8
         5825.378     2.047165E-8
         5830.042     2.046092E-8
         5834.711     2.044985E-8
         5839.383     2.043866E-8
         5844.059     2.042755E-8
         5848.742     2.041634E-8
         5853.428     2.040478E-8
         5858.115     2.039302E-8
         5862.806     2.038132E-8
           5867.5     2.036962E-8
         5872.199     2.035780E-8
         5876.904     2.034583E-8
         5881.613     2.033375E-8
         5886.323     2.032155E-8
         5891.036     2.030923E-8
         5895.756     2.029678E-8
         5900.474     2.028683E-8
         5905.202     2.030003E-8
         5909.934     2.031319E-8
         5914.666     2.032659E-8
         5919.402     2.033995E-8
         5924.145     2.035300E-8
         5928.885     2.036597E-8
         5933.636     2.037913E-8
         5938.391     2.039232E-8
         5943.146     2.040545E-8
         5947.905     2.041854E-8
         5952.667     2.043158E-8
         5957.437     2.044458E-8
         5962.208     2.045767E-8
         5966.981     2.047088E-8
         5971.763     2.048393E-8
         5976.544     2.049675E-8
          5981.33     2.050962E-8
         5986.123     2.052272E-8
         5990.919     2.053577E-8
         5995.713     2.054867E-8
         6000.518     2.055312E-8
         6005.322     2.048764E-8
         6010.131     2.042208E-8
         6014.947     2.035664E-8
         6019.767     2.029111E-8
         6024.583     2.022557E-8
         6029.411     2.015985E-8
         6034.239     2.009404E-8
          6039.07     2.002815E-8
          6043.91     1.996210E-8
         6048.752     1.989595E-8
         6053.596     1.982996E-8
         6058.443     1.976395E-8
         6063.294     1.969758E-8
         6068.149     1.963099E-8
         6073.012     1.956449E-8
         6077.878     1.949803E-8
         6082.745     1.943150E-8
         6087.615     1.936487E-8
          6092.49     1.929814E-8
         6097.368     1.923132E-8
          6102.25     1.918198E-8
          6107.14     1.915311E-8
         6112.034     1.912416E-8
         6116.928     1.909513E-8
         6121.826     1.906609E-8
         6126.728     1.903704E-8
         6131.634     1.900791E-8
         6136.547     1.897865E-8
         6141.464     1.894945E-8
         6146.381     1.892048E-8
         6151.303     1.889135E-8
         6156.229     1.886191E-8
         6161.158     1.883242E-8
         6166.095     1.880294E-8
         6171.036     1.877338E-8
         6175.977     1.874374E-8
         6180.922     1.871405E-8
         6185.875     1.868435E-8
         6190.825     1.865464E-8
         6195.786     1.862475E-8
          6200.75     1.860051E-8
         6205.715     1.860817E-8
         6210.685     1.861578E-8
         6215.657     1.862307E-8
         6220.635     1.863041E-8
         6225.619     1.863807E-8
         6230.607     1.864568E-8
         6235.597     1.865294E-8
         6240.589     1.866024E-8
         6245.586     1.866788E-8
         6250.591     1.867548E-8
         6255.593     1.868273E-8
         6260.605     1.868998E-8
         6265.622     1.869703E-8
         6270.639     1.870410E-8
          6275.66     1.871133E-8
         6280.688     1.871854E-8
         6285.721     1.872559E-8
         6290.751     1.873261E-8
         6295.792     1.873955E-8
         6300.833     1.874062E-8
         6305.878     1.871195E-8
         6310.931     1.868315E-8
         6315.987     1.865402E-8
         6321.045     1.862488E-8
         6326.106     1.859575E-8
         6331.172     1.856657E-8
         6336.242     1.853727E-8
         6341.319     1.850786E-8
           6346.4     1.847825E-8
         6351.481     1.844860E-8
         6356.567     1.841886E-8
         6361.657     1.838900E-8
         6366.751     1.835896E-8
         6371.849     1.832886E-8
         6376.955     1.829865E-8
         6382.065     1.826842E-8
         6387.175     1.823823E-8
          6392.29     1.820783E-8
         6397.408     1.817717E-8
         6402.531     1.829566E-8
         6407.661     1.856733E-8
         6412.795     1.883923E-8
          6417.93     1.911118E-8
         6423.069     1.938319E-8
         6428.212     1.965531E-8
         6433.359     1.992766E-8
         6438.515     2.020047E-8
         6443.673     2.047332E-8
         6448.833     2.074617E-8
         6453.997     2.101922E-8
         6459.165     2.129247E-8
         6464.337     2.156537E-8
         6469.517     2.183858E-8
         6474.701     2.211202E-8
         6479.885     2.238547E-8
         6485.074     2.265920E-8
          6490.27     2.293330E-8
         6495.463     2.320649E-8
         6500.668     2.407647E-8
         6505.877     2.898830E-8
         6511.086     3.388765E-8
           6516.3     3.877730E-8
         6521.521     4.366015E-8
         6526.747     4.853305E-8
         6531.966     5.338613E-8
           6537.2     5.823865E-8
         6542.438     6.308140E-8
         6547.677     6.791029E-8
          6552.92     7.272931E-8
          6558.17     7.754063E-8
         6563.418     8.233577E-8
         6568.678     8.712712E-8
         6573.941     9.190583E-8
         6579.205     9.667032E-8
         6584.473     1.245954E-7
         6589.749     1.565980E-7
         6595.029     1.578959E-7
         6600.307     1.576627E-7
         6605.595     1.574268E-7
         6610.885     1.571905E-7
         6616.178     1.569521E-7
         6621.479     1.798999E-7
         6626.785     2.626511E-7
         6632.091     3.124806E-7
         6637.402     3.119987E-7
         6642.717     3.538360E-7
         6648.036     4.360136E-7
         6653.363     5.180553E-7
         6658.694     5.998925E-7
         6664.026     6.814944E-7
         6669.358     7.628497E-7
         6674.702     9.166670E-7
         6680.047     1.079909E-6
         6685.399     1.242870E-6
         6690.753     1.405336E-6
         6696.114     1.567482E-6
         6701.476     1.751721E-6
         6706.842     1.994959E-6
         6712.212     2.237584E-6
         6717.587     2.479639E-6
          6722.97     2.721256E-6
         6728.356     2.962258E-6
         6733.744     3.316004E-6
         6739.136     3.718645E-6
         6744.532     4.051761E-6
         6749.933     4.370992E-6
         6755.341     4.850549E-6
         6760.754     5.319562E-6
         6766.168     5.717027E-6
         6771.586     6.161029E-6
         6777.008     6.718678E-6
         6782.435     7.238533E-6
         6787.869     7.712618E-6
         6793.308     8.283961E-6
         6798.748     8.916797E-6
         6804.192     9.485733E-6
         6809.644     1.003500E-5
         6815.093     1.073264E-5
         6820.554     1.143179E-5
         6826.015     1.205629E-5
         6831.484     1.272318E-5
         6836.955     1.350494E-5
         6842.433     1.424948E-5
         6847.912     1.494692E-5
         6853.396     1.569210E-5
         6858.883     1.646573E-5
         6864.379     1.717376E-5
         6869.875     1.786310E-5
          6875.38     1.870749E-5
         6880.886     1.953975E-5
         6886.392     2.030234E-5
          6891.91     2.109145E-5
         6897.432     2.193035E-5
         6902.955     2.263874E-5
         6908.482     2.323415E-5
         6914.018     2.400138E-5
         6919.558     2.483175E-5
         6925.095     2.551308E-5
         6930.644     2.619006E-5
         6936.193     2.693485E-5
         6941.748     2.762777E-5
          6947.31     2.821064E-5
         6952.876     2.883260E-5
         6958.444     2.949034E-5
         6964.016     3.008988E-5
         6969.592     3.066590E-5
         6975.173     3.116750E-5
         6980.762     3.165151E-5
         6986.352     3.206615E-5
          6991.95     3.250706E-5
         6997.548     3.299727E-5
         7003.151     3.342432E-5
         7008.759     3.380144E-5
         7014.375     3.411566E-5
         7019.992     3.441060E-5
         7025.617     3.470467E-5
         7031.242     3.501401E-5
         7036.873     3.538227E-5
         7042.507     3.567967E-5
          7048.15     3.588978E-5
         7053.794     3.609889E-5
         7059.446     3.630702E-5
         7065.099     3.651372E-5
         7070.756     3.671907E-5
         7076.417     3.692316E-5
         7082.084     3.709799E-5
         7087.759     3.722379E-5
         7093.438     3.734903E-5
         7099.118     3.747350E-5
         7104.803     3.759705E-5
         7110.496     3.770661E-5
         7116.185     3.767811E-5
         7121.887     3.769900E-5
          7127.59     3.781956E-5
         7133.301     3.781005E-5
         7139.013     3.770614E-5
         7144.733     3.772495E-5
          7150.45     3.775711E-5
          7156.18     3.765283E-5
          7161.91     3.754874E-5
         7167.649     3.744473E-5
         7173.388     3.729781E-5
         7179.136     3.712124E-5
         7184.885     3.700709E-5
         7190.638     3.689593E-5
         7196.396     3.672060E-5
         7202.162     3.654557E-5
         7207.929     3.637116E-5
         7213.701     3.619722E-5
         7219.481     3.602361E-5
         7225.266     3.578523E-5
         7231.047     3.555443E-5
         7236.841     3.538260E-5
         7242.636     3.517892E-5
         7248.436     3.493711E-5
         7254.244     3.469592E-5
         7260.056     3.445484E-5
         7265.866     3.414430E-5
         7271.688     3.383469E-5
          7277.51     3.352688E-5
         7283.337     3.326048E-5
         7289.173     3.302483E-5
          7295.01     3.279066E-5
         7300.855     3.253656E-5
         7306.698     3.216369E-5
         7312.552     3.185332E-5
         7318.408     3.162368E-5
         7324.272     3.144521E-5
         7330.137     3.128130E-5
          7336.01     3.091419E-5
         7341.884     3.057108E-5
         7347.763     3.027643E-5
         7353.646     3.002579E-5
         7359.539     2.980212E-5
         7365.432     2.938934E-5
         7371.334     2.900840E-5
         7377.236     2.878826E-5
         7383.144     2.849627E-5
         7389.056     2.814169E-5
         7394.972     2.790325E-5
         7400.897     2.767701E-5
         7406.828     2.739434E-5
         7412.759     2.714423E-5
         7418.694     2.693102E-5
         7424.635     2.661360E-5
          7430.58     2.627457E-5
         7436.534     2.599786E-5
         7442.488     2.572222E-5
         7448.452     2.544719E-5
         7454.416     2.522330E-5
         7460.389     2.501316E-5
         7466.359     2.474191E-5
         7472.342     2.447135E-5
         7478.325     2.420209E-5
         7484.317     2.393370E-5
          7490.31     2.366661E-5
         7496.312     2.340083E-5
         7502.311     2.313603E-5
         7508.322     2.287124E-5
         7514.334     2.260769E-5
         7520.355     2.234887E-5
         7526.377     2.215257E-5
         7532.408     2.193089E-5
         7538.439     2.167127E-5
         7544.471     2.150874E-5
         7550.517     2.136343E-5
         7556.566     2.104167E-5
         7562.617     2.074931E-5
         7568.673     2.049459E-5
         7574.738     2.024076E-5
         7580.807     2.001351E-5
         7586.873     1.995320E-5
         7592.952     1.980013E-5
         7599.032     1.954976E-5
         7605.117     1.935369E-5
         7611.211     1.915574E-5
          7617.31     1.890805E-5
         7623.409     1.869673E-5
         7629.509     1.851410E-5
         7635.623     1.827432E-5
         7641.736     1.806621E-5
          7647.86     1.794811E-5
         7653.988     1.774943E-5
         7660.117     1.751073E-5
         7666.246     1.739461E-5
         7672.389     1.723063E-5
         7678.532     1.699213E-5
         7684.685     1.684818E-5
         7690.838     1.672577E-5
         7697.001     1.655085E-5
         7703.164     1.637677E-5
         7709.333     1.620340E-5
         7715.505     1.603078E-5
         7721.684     1.587537E-5
         7727.871     1.576452E-5
         7734.063     1.561444E-5
         7740.256     1.544437E-5
         7746.454     1.527506E-5
         7752.657     1.513211E-5
         7758.864     1.502388E-5
         7765.082     1.486723E-5
         7771.304     1.471284E-5
         7777.526     1.460609E-5
         7783.754     1.449974E-5
         7789.987     1.439377E-5
         7796.224     1.417070E-5
         7802.471     1.399477E-5
         7808.723     1.389051E-5
         7814.976     1.378671E-5
         7821.234     1.367179E-5
           7827.5     1.351056E-5
         7833.764     1.341993E-5
         7840.041     1.337495E-5
         7846.319     1.321539E-5
         7852.606     1.308032E-5
         7858.894     1.297954E-5
         7865.191     1.287911E-5
         7871.489     1.277912E-5
         7877.792     1.267952E-5
           7884.1     1.258032E-5
         7890.417     1.248143E-5
         7896.735     1.238302E-5
         7903.063     1.225759E-5
         7909.391     1.210377E-5
          7915.72     1.200148E-5
         7922.063     1.192307E-5
         7928.411     1.188264E-5
         7934.759     1.180056E-5
         7941.113     1.170487E-5
         7947.476     1.160953E-5
         7953.844     1.151457E-5
         7960.208     1.142193E-5
         7966.587     1.138276E-5
         7972.966     1.131818E-5
          7979.35     1.122454E-5
         7985.744     1.113127E-5
         7992.143     1.087245E-5
         7998.542     1.028669E-5
         8004.947     1.010399E-5
         8011.357     1.003962E-5
         8017.772     9.975410E-6
         8024.196     9.911399E-6
         8030.622     9.847647E-6
         8037.056     9.784058E-6
         8043.487     9.720752E-6
         8049.933     9.657555E-6
         8056.378     9.594562E-6
         8062.833     9.531746E-6
          8069.29     9.469192E-6
         8075.756     9.406810E-6
         8082.222     9.344666E-6
         8088.694     9.282724E-6
         8095.171     9.220983E-6
         8101.657     9.163316E-6
         8108.145     9.117211E-6
         8114.642     9.071168E-6
         8121.139     9.025212E-6
         8127.642     8.979277E-6
          8134.15     8.933429E-6
         8140.663     8.887646E-6
         8147.186     8.841898E-6
         8153.714     8.796174E-6
         8160.243     8.750514E-6
         8166.777     8.704966E-6
         8173.317     8.659448E-6
         8179.861     8.613961E-6
         8186.416     8.568551E-6
         8192.971     8.523231E-6
         8199.536     8.477927E-6
         8206.102     8.437900E-6
         8212.677     8.398254E-6
         8219.249     8.358690E-6
         8225.835     8.319037E-6
         8232.421     8.279430E-6
         8239.018     8.239820E-6
         8245.615     8.200201E-6
         8252.222     8.160567E-6
          8258.83     8.120987E-6
         8265.443     8.081381E-6
         8272.062     8.041780E-6
         8278.689     8.002190E-6
         8285.318     7.962597E-6
         8291.953     7.923007E-6
         8298.597     7.883426E-6
         8305.247     7.843815E-6
         8311.893     7.804269E-6
         8318.553     7.764703E-6
         8325.214     7.725137E-6
          8331.88     7.685579E-6
         8338.556     7.646036E-6
         8345.237     7.606464E-6
         8351.915     7.574334E-6
         8358.607     7.560497E-6
         8365.301     7.546484E-6
         8371.999     7.532321E-6
         8378.707     7.518021E-6
         8385.416     7.503544E-6
         8392.135     7.488909E-6
         8398.851     7.474162E-6
          8405.58     7.456576E-6
         8412.311     7.438319E-6
         8419.052     7.419933E-6
         8425.793     7.401382E-6
         8432.544     7.382669E-6
         8439.297     7.363819E-6
         8446.054     7.344829E-6
         8452.817     7.325704E-6
          8459.59     7.306446E-6
         8466.364     7.287011E-6
         8473.148     7.267415E-6
         8479.933     7.247684E-6
         8486.723     7.227846E-6
         8493.519     7.207831E-6
         8500.319     7.187396E-6
         8507.131     7.161714E-6
         8513.947     7.135934E-6
         8520.765     7.110054E-6
         8527.588     7.084011E-6
         8534.416     7.057867E-6
          8541.25     7.031600E-6
         8548.094     7.005158E-6
         8554.938     6.978606E-6
         8561.793     6.951917E-6
         8568.649     6.925142E-6
         8575.515     6.898194E-6
         8582.377     6.871157E-6
         8589.254     6.843976E-6
         8596.132     6.816651E-6
          8603.02     6.791627E-6
         8609.908     6.769610E-6
         8616.807     6.747448E-6
         8623.702     6.725119E-6
         8630.612     6.702576E-6
         8637.522     6.679917E-6
         8644.444     6.657043E-6
         8651.366     6.633829E-6
         8658.293     6.609765E-6
          8665.23     6.585542E-6
          8672.17     6.561163E-6
         8679.113     6.536598E-6
         8686.068     6.511872E-6
         8693.023     6.486984E-6
         8699.984     6.461904E-6
         8706.955     6.431283E-6
         8713.932     6.400538E-6
         8720.904     6.369718E-6
         8727.893     6.338691E-6
         8734.881     6.307585E-6
         8741.875     6.276361E-6
          8748.88     6.244981E-6
         8755.891     6.213441E-6
         8762.896     6.181827E-6
         8769.913     6.150078E-6
          8776.94     6.118141E-6
         8783.969     6.086112E-6
         8791.007     6.053941E-6
         8798.046     6.021631E-6
         8805.096     5.993088E-6
         8812.142     5.965911E-6
         8819.203     5.938509E-6
         8826.265     5.910945E-6
         8833.337     5.883174E-6
          8840.41     5.855235E-6
         8847.493     5.827092E-6
         8854.578     5.798797E-6
         8861.668     5.770319E-6
         8868.764     5.741623E-6
         8875.865     5.712736E-6
         8882.978     5.683637E-6
         8890.096     5.654343E-6
         8897.214     5.624879E-6
         8904.338     5.590828E-6
         8911.468     5.553823E-6
         8918.604     5.516702E-6
          8925.75     5.479440E-6
         8932.902     5.442058E-6
         8940.055     5.404592E-6
         8947.214     5.367033E-6
         8954.378     5.328929E-6
         8961.548     5.290438E-6
         8968.729     5.251813E-6
          8975.91     5.213109E-6
         8983.103     5.174271E-6
         8990.296     5.135351E-6
         8997.499     5.096304E-6
         9004.699     5.065055E-6
         9011.914     5.037795E-6
         9019.131     5.010392E-6
         9026.357     4.982764E-6
         9033.585     4.954983E-6
         9040.823     4.927010E-6
         9048.058     4.898862E-6
         9055.308     4.870493E-6
         9062.559     4.841967E-6
          9069.82     4.813252E-6
         9077.083     4.784341E-6
         9084.356     4.755238E-6
          9091.63     4.725975E-6
         9098.905     4.696513E-6
         9106.196     4.661521E-6
         9113.492     4.625481E-6
          9120.79     4.589352E-6
         9128.099     4.553090E-6
         9135.407     4.516750E-6
         9142.728     4.480283E-6
         9150.044     4.443772E-6
         9157.375     4.407080E-6
         9164.708     4.370300E-6
         9172.046     4.333416E-6
         9179.396     4.296393E-6
         9186.746     4.259287E-6
         9194.107     4.222045E-6
         9201.464     4.185962E-6
         9208.837     4.154560E-6
         9216.211     4.122970E-6
         9223.596     4.091150E-6
         9230.981     4.059141E-6
         9238.378     4.026901E-6
         9245.771     3.994475E-6
         9253.179     3.961602E-6
         9260.588     3.928295E-6
         9268.009     3.894754E-6
          9275.43     3.861036E-6
         9282.861     3.827088E-6
         9290.295     3.792950E-6
         9297.734     3.758601E-6
         9305.179     3.722704E-6
         9312.635     3.686011E-6
         9320.092     3.649169E-6
          9327.56     3.612128E-6
         9335.028     3.574938E-6
         9342.504     3.537574E-6
         9349.984     3.500053E-6
         9357.477     3.462304E-6
          9364.97     3.424403E-6
         9372.468     3.386329E-6
         9379.979     3.348042E-6
         9387.489     3.309605E-6
         9395.006     3.270989E-6
         9402.528     3.232233E-6
         9410.063     3.193342E-6
         9417.598     3.154293E-6
         9425.144     3.115033E-6
          9432.69     3.075613E-6
         9440.249     3.035976E-6
         9447.803     2.996208E-6
         9455.373     2.956210E-6
         9462.944     2.916047E-6
         9470.527     2.875652E-6
          9478.11     2.835099E-6
         9485.705     2.794325E-6
         9493.301     2.753386E-6
         9500.902     2.713914E-6
          9508.51     2.686661E-6
         9516.129     2.659343E-6
         9523.749     2.632002E-6
          9531.38     2.604601E-6
         9539.012     2.577176E-6
          9546.65     2.549709E-6
         9554.295     2.522194E-6
          9561.95     2.494617E-6
         9569.606     2.467029E-6
          9577.27     2.439402E-6
         9584.943     2.411718E-6
         9592.618     2.384013E-6
           9600.3     2.356121E-6
         9607.987     2.324617E-6
         9615.686     2.293152E-6
         9623.385     2.261761E-6
         9631.096     2.230400E-6
         9638.808     2.199134E-6
         9646.531     2.167905E-6
          9654.25     2.136780E-6
         9661.986     2.105670E-6
         9669.723     2.074646E-6
         9677.471     2.043649E-6
          9685.22     2.012743E-6
          9692.98     1.981882E-6
         9700.737     1.951454E-6
          9708.51     1.924148E-6
         9716.284     1.896817E-6
         9724.069     1.869434E-6
         9731.855     1.842032E-6
         9739.653     1.814561E-6
         9747.452     1.787069E-6
         9755.258     1.759053E-6
         9763.069     1.730781E-6
         9770.892     1.702475E-6
         9778.716     1.674175E-6
         9786.551     1.645832E-6
         9794.388     1.617488E-6
          9802.23     1.588763E-6
         9810.079     1.559138E-6
         9817.935     1.529555E-6
         9825.802     1.499979E-6
         9833.669     1.470463E-6
         9841.549     1.440962E-6
          9849.43     1.411510E-6
         9857.316     1.382098E-6
         9865.209     1.352730E-6
         9873.114     1.323376E-6
          9881.02     1.294082E-6
         9888.938     1.264811E-6
         9896.855     1.235596E-6
         9904.785     1.205943E-6
         9912.711     1.176097E-6
         9920.654     1.146283E-6
         9928.598     1.116575E-6
         9936.554     1.086929E-6
          9944.51     1.057389E-6
         9952.479     1.027906E-6
         9960.447     9.985253E-7
         9968.423     9.692259E-7
         9976.405     9.400137E-7
         9984.399     9.108644E-7
         9992.395     8.818192E-7
          10000.4     8.535900E-7
         10008.41     8.393438E-7
         10016.43     8.251661E-7
         10024.45     8.110358E-7
         10032.48     7.969537E-7
         10040.51     7.829227E-7
         10048.55     7.689416E-7
         10056.59     7.550127E-7
         10064.66     7.411161E-7
         10072.71     7.273096E-7
         10080.78     7.135168E-7
         10088.85     6.997994E-7
         10096.93     6.861339E-7
         10105.02     7.367534E-7
         10113.12     7.681151E-7
         10121.22     7.108894E-7
         10129.32     6.522338E-7
         10137.43     6.828699E-7
         10145.55     7.142394E-7
         10153.67     6.720861E-7
         10161.82     5.564124E-7
         10169.95     4.700245E-7
          10178.1     5.457494E-7
         10186.25     5.090833E-7
          10194.4     5.545218E-7
         10202.57     6.179806E-7
         10210.75     5.243493E-7
         10218.92     4.594854E-7
         10227.11     4.756997E-7
         10235.29     5.202342E-7
         10243.49     5.385466E-7
         10251.69     5.099407E-7
         10259.91     4.739424E-7
         10268.13     4.841639E-7
         10276.35     4.595383E-7
         10284.58     4.259581E-7
         10292.81     3.874675E-7
         10301.06     3.441759E-7
          10309.3     3.366101E-7
         10317.57     3.477676E-7
         10325.83     3.224930E-7
          10334.1     3.197451E-7
         10342.38     3.316152E-7
         10350.66     2.950517E-7
         10358.95     2.761818E-7
         10367.25     2.750913E-7
         10375.55     2.515433E-7
         10383.86     2.503765E-7
         10392.18     2.663112E-7
          10400.5     2.320469E-7
         10408.83     2.061073E-7
         10417.17     1.869931E-7
         10425.51     1.842141E-7
         10433.86     1.590058E-7
         10442.21     1.265643E-7
         10450.59     1.536599E-7
         10458.94     1.610960E-7
         10467.33     1.486723E-7
         10475.71     1.289774E-7
          10484.1     1.188480E-7
          10492.5     1.121154E-7
          10500.9     9.290646E-8
         10509.32     9.161027E-8
         10517.72     1.079002E-7
         10526.15     1.016180E-7
         10534.58     8.674506E-8
         10543.02     7.768279E-8
         10551.46     7.753835E-8
         10559.92     7.228709E-8
         10568.37     7.115952E-8
         10576.84     6.809053E-8
         10585.31     6.912611E-8
         10593.78     7.079671E-8
         10602.27     6.665462E-8
         10610.77     5.457787E-8
         10619.26     5.370783E-8
         10627.77     4.972580E-8
         10636.28     5.140932E-8
         10644.79     5.611681E-8
         10653.32     5.801951E-8
         10661.86     5.451060E-8
          10670.4     5.102407E-8
         10678.94     5.149004E-8
         10687.49     5.062629E-8
         10696.05     5.226808E-8
         10704.62     5.230196E-8
         10713.19     5.051943E-8
         10721.78     4.890656E-8
         10730.36     4.569661E-8
         10738.95     4.461772E-8
         10747.55     3.740617E-8
         10756.16     3.580214E-8
         10764.77     3.460103E-8
          10773.4     3.125439E-8
         10782.03     2.738322E-8
         10790.66     2.487090E-8
          10799.3     2.710731E-8
         10807.95     3.040701E-8
         10816.61     2.859974E-8
         10825.27     3.059515E-8
         10833.93     3.073881E-8
         10842.62     2.701947E-8
          10851.3     2.712471E-8
           10860.     2.435371E-8
          10868.7     2.453602E-8
          10877.4     2.121282E-8
          10886.1     2.145630E-8
         10894.83     1.939709E-8
         10903.55     1.613621E-8
          10912.3     1.518191E-8
         10921.04     1.397883E-8
         10929.78     1.359756E-8
         10938.53     1.524177E-8
         10947.29     1.363855E-8
         10956.06     1.055945E-8
         10964.84     9.875327E-9
         10973.62     9.435614E-9
          10982.4     7.576986E-9
          10991.2     7.748603E-9
           11000.     6.632837E-9
